Data from 0p01m_dischargeco2_Absorbance_17-43-49-791.txt Node
Date: Wed Nov 02 17:43:49 EDT 2022
User: Kiana
Spectrometer: FLMS00943
Trigger mode: 0
Integration Time (sec): 1.000000E-1
Scans to average: 1
Electric dark correction enabled: true
Nonlinearity correction enabled: false
Boxcar width: 0
XAxis mode: Wavelengths
Number of Pixels in Spectrum: 2048
>>>>>Begin Spectral Data<<<<<
179.651	0.68
180.037	0.68
180.424	0.68
180.81	-0
181.197	-0.2
181.583	-0
181.97	-0
182.356	-0.09
182.743	0.05
183.129	-0
183.515	-0
183.901	-0.07
184.288	-0
184.674	-0.2
185.06	-0
185.446	-0
185.832	-0.36
186.218	0.94
186.604	-0
186.99	-1.2
187.376	0.18
187.762	-0
188.148	-0.57
188.534	0.34
188.92	0.26
189.305	0.21
189.691	0.23
190.077	0.24
190.463	0.31
190.848	0.29
191.234	0.26
191.619	0.19
192.005	0.25
192.391	0.27
192.776	0.2
193.161	0.17
193.547	0.26
193.932	0.25
194.318	0.25
194.703	0.29
195.088	0.24
195.473	0.26
195.859	0.28
196.244	0.18
196.629	0.19
197.014	0.29
197.399	0.33
197.784	0.26
198.169	0.3
198.554	0.32
198.939	0.35
199.324	0.23
199.709	0.31
200.094	0.31
200.478	0.37
200.863	0.29
201.248	0.31
201.633	0.33
202.017	0.38
202.402	0.39
202.787	0.3
203.171	0.38
203.556	0.38
203.94	0.39
204.325	0.35
204.709	0.39
205.093	0.41
205.478	0.39
205.862	0.45
206.246	0.45
206.631	0.43
207.015	0.44
207.399	0.47
207.783	0.49
208.167	0.48
208.551	0.5
208.935	0.45
209.319	0.44
209.703	0.49
210.087	0.45
210.471	0.5
210.855	0.54
211.239	0.49
211.623	0.56
212.007	0.58
212.39	0.56
212.774	0.67
213.158	0.6
213.541	0.63
213.925	0.6
214.309	0.63
214.692	0.59
215.076	0.63
215.459	0.59
215.842	0.6
216.226	0.73
216.609	0.79
216.993	0.8
217.376	0.87
217.759	0.95
218.142	0.91
218.525	0.97
218.909	1.02
219.292	1.05
219.675	1.09
220.058	1.15
220.441	1.16
220.824	1.18
221.207	1.21
221.59	1.19
221.973	1.21
222.355	1.26
222.738	1.24
223.121	1.2
223.504	1.24
223.886	1.23
224.269	1.23
224.652	1.2
225.034	1.19
225.417	1.17
225.799	1.16
226.182	1.14
226.564	1.13
226.947	1.1
227.329	1.07
227.711	1.04
228.094	1.03
228.476	1
228.858	0.98
229.24	0.96
229.623	0.94
230.005	0.92
230.387	0.89
230.769	0.87
231.151	0.86
231.533	0.84
231.915	0.83
232.297	0.82
232.679	0.81
233.061	0.8
233.442	0.77
233.824	0.76
234.206	0.77
234.588	0.78
234.969	0.78
235.351	0.78
235.733	0.78
236.114	0.79
236.496	0.8
236.877	0.8
237.259	0.81
237.64	0.83
238.022	0.83
238.403	0.85
238.784	0.89
239.165	0.89
239.547	0.92
239.928	0.92
240.309	0.95
240.69	0.97
241.071	0.99
241.452	1
241.834	1.02
242.215	1.04
242.595	1.06
242.976	1.08
243.357	1.12
243.738	1.12
244.119	1.15
244.5	1.15
244.881	1.21
245.261	1.19
245.642	1.2
246.023	1.22
246.403	1.23
246.784	1.24
247.164	1.25
247.545	1.28
247.925	1.32
248.306	1.3
248.686	1.32
249.067	1.35
249.447	1.33
249.827	1.35
250.207	1.36
250.588	1.36
250.968	1.39
251.348	1.4
251.728	1.39
252.108	1.4
252.488	1.37
252.868	1.38
253.248	1.38
253.628	1.38
254.008	1.39
254.388	1.37
254.768	1.37
255.147	1.36
255.527	1.35
255.907	1.33
256.287	1.32
256.666	1.33
257.046	1.29
257.425	1.27
257.805	1.26
258.184	1.24
258.564	1.22
258.943	1.2
259.323	1.16
259.702	1.13
260.081	1.11
260.461	1.08
260.84	1.06
261.219	1.01
261.598	0.98
261.977	0.96
262.356	0.92
262.736	0.89
263.115	0.87
263.494	0.84
263.873	0.81
264.251	0.79
264.63	0.76
265.009	0.73
265.388	0.72
265.767	0.69
266.145	0.67
266.524	0.65
266.903	0.62
267.281	0.6
267.66	0.59
268.039	0.57
268.417	0.56
268.796	0.53
269.174	0.52
269.552	0.51
269.931	0.48
270.309	0.47
270.687	0.45
271.066	0.43
271.444	0.43
271.822	0.42
272.2	0.4
272.578	0.39
272.956	0.37
273.334	0.36
273.712	0.34
274.09	0.34
274.468	0.33
274.846	0.31
275.224	0.3
275.602	0.29
275.98	0.28
276.357	0.27
276.735	0.26
277.113	0.25
277.49	0.25
277.868	0.25
278.246	0.24
278.623	0.24
279.001	0.23
279.378	0.21
279.756	0.21
280.133	0.21
280.51	0.19
280.888	0.17
281.265	0.17
281.642	0.15
282.019	0.15
282.396	0.14
282.773	0.13
283.151	0.13
283.528	0.11
283.905	0.11
284.282	0.11
284.659	0.09
285.035	0.09
285.412	0.09
285.789	0.09
286.166	0.08
286.543	0.08
286.919	0.08
287.296	0.08
287.673	0.08
288.049	0.08
288.426	0.08
288.802	0.08
289.179	0.08
289.555	0.08
289.932	0.08
290.308	0.08
290.684	0.08
291.061	0.08
291.437	0.07
291.813	0.07
292.189	0.07
292.565	0.06
292.942	0.06
293.318	0.06
293.694	0.06
294.07	0.05
294.446	0.05
294.822	0.06
295.197	0.05
295.573	0.05
295.949	0.06
296.325	0.05
296.701	0.05
297.076	0.06
297.452	0.06
297.828	0.05
298.203	0.06
298.579	0.06
298.954	0.06
299.33	0.06
299.705	0.06
300.081	0.07
300.456	0.07
300.831	0.07
301.206	0.07
301.582	0.07
301.957	0.07
302.332	0.08
302.707	0.08
303.082	0.08
303.457	0.08
303.832	0.09
304.207	0.09
304.582	0.09
304.957	0.09
305.332	0.09
305.707	0.09
306.082	0.08
306.456	0.09
306.831	0.09
307.206	0.09
307.58	0.09
307.955	0.09
308.33	0.09
308.704	0.09
309.079	0.09
309.453	0.09
309.828	0.09
310.202	0.09
310.576	0.1
310.951	0.1
311.325	0.1
311.699	0.1
312.073	0.11
312.447	0.1
312.821	0.11
313.196	0.11
313.57	0.11
313.944	0.1
314.317	0.1
314.691	0.1
315.065	0.1
315.439	0.1
315.813	0.1
316.187	0.1
316.56	0.1
316.934	0.1
317.308	0.1
317.681	0.11
318.055	0.1
318.428	0.1
318.802	0.1
319.175	0.1
319.549	0.1
319.922	0.1
320.295	0.09
320.669	0.11
321.042	0.1
321.415	0.11
321.788	0.11
322.162	0.12
322.535	0.12
322.908	0.13
323.281	0.13
323.654	0.13
324.027	0.13
324.4	0.13
324.773	0.13
325.145	0.14
325.518	0.13
325.891	0.13
326.264	0.14
326.636	0.14
327.009	0.14
327.382	0.14
327.754	0.14
328.127	0.14
328.499	0.13
328.872	0.13
329.244	0.12
329.616	0.12
329.989	0.12
330.361	0.12
330.733	0.13
331.106	0.14
331.478	0.14
331.85	0.14
332.222	0.14
332.594	0.14
332.966	0.14
333.338	0.15
333.71	0.14
334.082	0.14
334.454	0.15
334.826	0.14
335.197	0.14
335.569	0.14
335.941	0.14
336.312	0.14
336.684	0.14
337.056	0.15
337.427	0.14
337.799	0.15
338.17	0.16
338.542	0.15
338.913	0.15
339.284	0.16
339.656	0.15
340.027	0.16
340.398	0.16
340.769	0.16
341.141	0.17
341.512	0.16
341.883	0.16
342.254	0.17
342.625	0.18
342.996	0.17
343.367	0.18
343.738	0.18
344.108	0.19
344.479	0.19
344.85	0.19
345.221	0.19
345.591	0.2
345.962	0.19
346.333	0.2
346.703	0.2
347.074	0.2
347.444	0.2
347.815	0.21
348.185	0.21
348.556	0.21
348.926	0.21
349.296	0.22
349.666	0.23
350.037	0.22
350.407	0.23
350.777	0.23
351.147	0.23
351.517	0.23
351.887	0.24
352.257	0.25
352.627	0.25
352.997	0.24
353.367	0.25
353.737	0.25
354.106	0.25
354.476	0.25
354.846	0.25
355.216	0.26
355.585	0.25
355.955	0.26
356.324	0.26
356.694	0.27
357.063	0.28
357.433	0.27
357.802	0.27
358.171	0.27
358.541	0.27
358.91	0.28
359.279	0.29
359.648	0.28
360.017	0.29
360.387	0.3
360.756	0.3
361.125	0.3
361.494	0.3
361.863	0.31
362.231	0.31
362.6	0.31
362.969	0.32
363.338	0.32
363.707	0.32
364.075	0.34
364.444	0.34
364.813	0.34
365.181	0.34
365.55	0.34
365.918	0.35
366.287	0.35
366.655	0.37
367.024	0.36
367.392	0.37
367.76	0.37
368.128	0.37
368.497	0.38
368.865	0.38
369.233	0.38
369.601	0.39
369.969	0.39
370.337	0.4
370.705	0.4
371.073	0.41
371.441	0.41
371.809	0.4
372.177	0.41
372.544	0.41
372.912	0.41
373.28	0.41
373.647	0.41
374.015	0.41
374.383	0.42
374.75	0.41
375.118	0.42
375.485	0.42
375.853	0.42
376.22	0.42
376.587	0.42
376.955	0.42
377.322	0.43
377.689	0.44
378.056	0.44
378.423	0.44
378.79	0.44
379.157	0.44
379.524	0.45
379.891	0.45
380.258	0.45
380.625	0.45
380.992	0.46
381.359	0.46
381.726	0.47
382.092	0.47
382.459	0.47
382.826	0.48
383.192	0.47
383.559	0.49
383.925	0.48
384.292	0.49
384.658	0.5
385.025	0.5
385.391	0.5
385.757	0.5
386.123	0.5
386.49	0.51
386.856	0.51
387.222	0.53
387.588	0.52
387.954	0.53
388.32	0.52
388.686	0.51
389.052	0.53
389.418	0.52
389.784	0.52
390.15	0.53
390.515	0.52
390.881	0.53
391.247	0.53
391.613	0.53
391.978	0.53
392.344	0.51
392.709	0.52
393.075	0.52
393.44	0.52
393.806	0.52
394.171	0.51
394.536	0.52
394.902	0.51
395.267	0.51
395.632	0.5
395.997	0.5
396.362	0.5
396.727	0.5
397.092	0.49
397.457	0.49
397.822	0.49
398.187	0.47
398.552	0.48
398.917	0.48
399.282	0.47
399.646	0.47
400.011	0.46
400.376	0.46
400.74	0.45
401.105	0.46
401.47	0.46
401.834	0.45
402.199	0.45
402.563	0.45
402.927	0.44
403.292	0.44
403.656	0.45
404.02	0.44
404.384	0.43
404.749	0.42
405.113	0.42
405.477	0.42
405.841	0.41
406.205	0.43
406.569	0.41
406.933	0.41
407.296	0.41
407.66	0.41
408.024	0.4
408.388	0.4
408.752	0.4
409.115	0.41
409.479	0.39
409.842	0.38
410.206	0.4
410.569	0.39
410.933	0.39
411.296	0.38
411.66	0.38
412.023	0.39
412.386	0.38
412.749	0.37
413.113	0.37
413.476	0.38
413.839	0.37
414.202	0.36
414.565	0.36
414.928	0.36
415.291	0.36
415.654	0.34
416.017	0.35
416.38	0.35
416.742	0.35
417.105	0.34
417.468	0.34
417.83	0.34
418.193	0.33
418.556	0.33
418.918	0.33
419.281	0.32
419.643	0.32
420.005	0.32
420.368	0.32
420.73	0.32
421.092	0.32
421.455	0.31
421.817	0.3
422.179	0.3
422.541	0.3
422.903	0.3
423.265	0.29
423.627	0.29
423.989	0.29
424.351	0.3
424.713	0.28
425.075	0.28
425.436	0.29
425.798	0.28
426.16	0.29
426.521	0.28
426.883	0.28
427.245	0.28
427.606	0.27
427.967	0.29
428.329	0.27
428.69	0.28
429.052	0.29
429.413	0.27
429.774	0.27
430.135	0.27
430.497	0.27
430.858	0.27
431.219	0.27
431.58	0.26
431.941	0.26
432.302	0.27
432.663	0.28
433.024	0.26
433.384	0.25
433.745	0.25
434.106	0.26
434.467	0.26
434.827	0.25
435.188	0.26
435.548	0.25
435.909	0.26
436.269	0.24
436.63	0.24
436.99	0.25
437.351	0.24
437.711	0.24
438.071	0.24
438.431	0.23
438.792	0.24
439.152	0.24
439.512	0.23
439.872	0.23
440.232	0.24
440.592	0.23
440.952	0.22
441.312	0.22
441.671	0.22
442.031	0.21
442.391	0.21
442.751	0.21
443.11	0.21
443.47	0.21
443.83	0.2
444.189	0.2
444.549	0.21
444.908	0.21
445.267	0.2
445.627	0.2
445.986	0.19
446.345	0.19
446.705	0.19
447.064	0.19
447.423	0.18
447.782	0.18
448.141	0.18
448.5	0.18
448.859	0.17
449.218	0.16
449.577	0.16
449.936	0.17
450.295	0.17
450.653	0.17
451.012	0.16
451.371	0.15
451.729	0.15
452.088	0.16
452.447	0.16
452.805	0.16
453.163	0.15
453.522	0.15
453.88	0.15
454.239	0.14
454.597	0.14
454.955	0.13
455.313	0.14
455.671	0.13
456.029	0.13
456.388	0.14
456.746	0.13
457.104	0.13
457.461	0.13
457.819	0.12
458.177	0.13
458.535	0.12
458.893	0.12
459.25	0.12
459.608	0.12
459.966	0.12
460.323	0.12
460.681	0.12
461.038	0.11
461.396	0.12
461.753	0.12
462.111	0.12
462.468	0.11
462.825	0.11
463.182	0.12
463.54	0.09
463.897	0.11
464.254	0.11
464.611	0.11
464.968	0.11
465.325	0.1
465.682	0.11
466.039	0.1
466.395	0.1
466.752	0.1
467.109	0.11
467.466	0.11
467.822	0.1
468.179	0.1
468.535	0.1
468.892	0.1
469.248	0.1
469.605	0.1
469.961	0.1
470.318	0.1
470.674	0.1
471.03	0.1
471.386	0.1
471.743	0.09
472.099	0.1
472.455	0.1
472.811	0.1
473.167	0.09
473.523	0.1
473.879	0.1
474.235	0.1
474.59	0.1
474.946	0.1
475.302	0.1
475.657	0.1
476.013	0.1
476.369	0.09
476.724	0.09
477.08	0.09
477.435	0.09
477.791	0.09
478.146	0.09
478.501	0.09
478.857	0.09
479.212	0.09
479.567	0.08
479.922	0.08
480.277	0.08
480.632	0.08
480.987	0.08
481.342	0.07
481.697	0.07
482.052	0.07
482.407	0.06
482.762	0.07
483.116	0.06
483.471	0.06
483.826	0.06
484.18	0.06
484.535	0.06
484.89	0.06
485.244	0.06
485.598	0.06
485.953	0.06
486.307	0.06
486.661	0.06
487.016	0.06
487.37	0.06
487.724	0.06
488.078	0.06
488.432	0.06
488.786	0.06
489.14	0.05
489.494	0.05
489.848	0.05
490.202	0.06
490.556	0.05
490.91	0.06
491.263	0.06
491.617	0.06
491.971	0.06
492.324	0.06
492.678	0.06
493.031	0.06
493.385	0.06
493.738	0.06
494.091	0.06
494.445	0.06
494.798	0.06
495.151	0.06
495.504	0.06
495.857	0.06
496.21	0.07
496.564	0.06
496.916	0.07
497.269	0.06
497.622	0.06
497.975	0.07
498.328	0.07
498.681	0.07
499.033	0.08
499.386	0.07
499.739	0.08
500.091	0.07
500.444	0.08
500.796	0.08
501.149	0.08
501.501	0.08
501.854	0.08
502.206	0.08
502.558	0.08
502.91	0.09
503.263	0.09
503.615	0.1
503.967	0.09
504.319	0.09
504.671	0.09
505.023	0.1
505.375	0.1
505.726	0.1
506.078	0.09
506.43	0.09
506.782	0.1
507.133	0.09
507.485	0.1
507.837	0.1
508.188	0.09
508.54	0.09
508.891	0.1
509.243	0.1
509.594	0.09
509.945	0.09
510.296	0.1
510.648	0.09
510.999	0.1
511.35	0.1
511.701	0.09
512.052	0.09
512.403	0.09
512.754	0.09
513.105	0.09
513.456	0.09
513.807	0.09
514.157	0.09
514.508	0.09
514.859	0.09
515.209	0.09
515.56	0.09
515.91	0.08
516.261	0.09
516.611	0.08
516.962	0.09
517.312	0.09
517.662	0.09
518.013	0.08
518.363	0.08
518.713	0.08
519.063	0.08
519.413	0.08
519.763	0.08
520.113	0.08
520.463	0.07
520.813	0.07
521.163	0.07
521.512	0.07
521.862	0.07
522.212	0.08
522.562	0.07
522.911	0.07
523.261	0.07
523.61	0.07
523.96	0.07
524.309	0.07
524.658	0.07
525.008	0.07
525.357	0.07
525.706	0.07
526.056	0.07
526.405	0.07
526.754	0.07
527.103	0.07
527.452	0.08
527.801	0.07
528.15	0.08
528.499	0.07
528.847	0.08
529.196	0.08
529.545	0.08
529.893	0.08
530.242	0.08
530.591	0.08
530.939	0.08
531.288	0.08
531.636	0.08
531.985	0.09
532.333	0.08
532.681	0.08
533.029	0.08
533.378	0.08
533.726	0.08
534.074	0.09
534.422	0.09
534.77	0.09
535.118	0.09
535.466	0.08
535.814	0.09
536.162	0.08
536.509	0.08
536.857	0.08
537.205	0.09
537.552	0.08
537.9	0.08
538.248	0.09
538.595	0.09
538.943	0.08
539.29	0.08
539.637	0.08
539.985	0.08
540.332	0.09
540.679	0.08
541.026	0.08
541.373	0.08
541.721	0.08
542.068	0.08
542.415	0.08
542.762	0.08
543.108	0.08
543.455	0.08
543.802	0.08
544.149	0.08
544.496	0.08
544.842	0.08
545.189	0.08
545.535	0.08
545.882	0.09
546.228	0.09
546.575	0.08
546.921	0.09
547.267	0.08
547.614	0.09
547.96	0.09
548.306	0.08
548.652	0.09
548.998	0.09
549.344	0.09
549.69	0.09
550.036	0.09
550.382	0.09
550.728	0.1
551.074	0.1
551.42	0.09
551.765	0.1
552.111	0.09
552.457	0.1
552.802	0.09
553.148	0.09
553.493	0.09
553.839	0.09
554.184	0.09
554.529	0.08
554.875	0.1
555.22	0.09
555.565	0.09
555.91	0.09
556.255	0.09
556.6	0.09
556.945	0.09
557.29	0.09
557.635	0.08
557.98	0.09
558.325	0.09
558.67	0.09
559.014	0.09
559.359	0.09
559.704	0.08
560.048	0.08
560.393	0.09
560.737	0.09
561.082	0.09
561.426	0.09
561.77	0.09
562.115	0.1
562.459	0.1
562.803	0.09
563.147	0.1
563.491	0.09
563.835	0.1
564.179	0.09
564.523	0.09
564.867	0.09
565.211	0.1
565.555	0.1
565.899	0.09
566.242	0.09
566.586	0.1
566.93	0.09
567.273	0.1
567.617	0.09
567.96	0.09
568.304	0.1
568.647	0.09
568.99	0.08
569.334	0.09
569.677	0.1
570.02	0.1
570.363	0.1
570.706	0.09
571.049	0.1
571.392	0.11
571.735	0.1
572.078	0.1
572.421	0.1
572.764	0.1
573.106	0.1
573.449	0.1
573.792	0.1
574.134	0.1
574.477	0.1
574.819	0.1
575.162	0.11
575.504	0.1
575.847	0.1
576.189	0.09
576.531	0.1
576.873	0.09
577.215	0.09
577.558	0.09
577.9	0.09
578.242	0.09
578.584	0.09
578.926	0.09
579.267	0.09
579.609	0.1
579.951	0.09
580.293	0.09
580.634	0.1
580.976	0.09
581.318	0.1
581.659	0.09
582.001	0.1
582.342	0.1
582.683	0.1
583.025	0.1
583.366	0.09
583.707	0.09
584.049	0.09
584.39	0.09
584.731	0.09
585.072	0.09
585.413	0.08
585.754	0.09
586.095	0.09
586.435	0.09
586.776	0.09
587.117	0.09
587.458	0.1
587.798	0.1
588.139	0.1
588.48	0.1
588.82	0.1
589.161	0.1
589.501	0.09
589.841	0.09
590.182	0.1
590.522	0.09
590.862	0.08
591.202	0.09
591.542	0.09
591.882	0.09
592.222	0.09
592.562	0.09
592.902	0.09
593.242	0.09
593.582	0.08
593.922	0.09
594.261	0.08
594.601	0.09
594.941	0.09
595.28	0.09
595.62	0.1
595.959	0.09
596.299	0.09
596.638	0.09
596.977	0.09
597.317	0.08
597.656	0.09
597.995	0.09
598.334	0.09
598.673	0.09
599.012	0.09
599.351	0.09
599.69	0.09
600.029	0.09
600.368	0.09
600.707	0.09
601.046	0.09
601.384	0.1
601.723	0.09
602.061	0.09
602.4	0.09
602.738	0.09
603.077	0.1
603.415	0.09
603.754	0.1
604.092	0.1
604.43	0.09
604.768	0.09
605.107	0.09
605.445	0.09
605.783	0.09
606.121	0.09
606.459	0.09
606.796	0.08
607.134	0.08
607.472	0.09
607.81	0.09
608.148	0.09
608.485	0.09
608.823	0.09
609.16	0.09
609.498	0.09
609.835	0.09
610.173	0.09
610.51	0.09
610.847	0.09
611.185	0.08
611.522	0.09
611.859	0.08
612.196	0.09
612.533	0.08
612.87	0.09
613.207	0.09
613.544	0.09
613.881	0.09
614.217	0.08
614.554	0.09
614.891	0.09
615.228	0.08
615.564	0.08
615.901	0.09
616.237	0.08
616.574	0.09
616.91	0.08
617.246	0.09
617.583	0.09
617.919	0.09
618.255	0.09
618.591	0.09
618.927	0.08
619.263	0.08
619.599	0.08
619.935	0.08
620.271	0.09
620.607	0.08
620.943	0.08
621.279	0.08
621.614	0.09
621.95	0.08
622.286	0.08
622.621	0.08
622.957	0.09
623.292	0.08
623.627	0.08
623.963	0.08
624.298	0.08
624.633	0.08
624.968	0.08
625.304	0.08
625.639	0.08
625.974	0.08
626.309	0.08
626.644	0.08
626.979	0.08
627.313	0.08
627.648	0.08
627.983	0.08
628.318	0.08
628.652	0.08
628.987	0.08
629.321	0.08
629.656	0.08
629.99	0.08
630.325	0.08
630.659	0.08
630.993	0.08
631.327	0.07
631.662	0.07
631.996	0.07
632.33	0.08
632.664	0.07
632.998	0.07
633.332	0.07
633.666	0.07
633.999	0.07
634.333	0.07
634.667	0.08
635.001	0.08
635.334	0.07
635.668	0.07
636.001	0.08
636.335	0.08
636.668	0.08
637.001	0.08
637.335	0.07
637.668	0.07
638.001	0.07
638.334	0.08
638.668	0.08
639.001	0.08
639.334	0.08
639.667	0.07
639.999	0.08
640.332	0.08
640.665	0.08
640.998	0.07
641.331	0.08
641.663	0.08
641.996	0.08
642.328	0.08
642.661	0.08
642.993	0.07
643.326	0.08
643.658	0.07
643.99	0.07
644.323	0.07
644.655	0.07
644.987	0.08
645.319	0.07
645.651	0.07
645.983	0.08
646.315	0.08
646.647	0.08
646.979	0.08
647.31	0.07
647.642	0.08
647.974	0.08
648.305	0.08
648.637	0.07
648.968	0.08
649.3	0.07
649.631	0.08
649.963	0.07
650.294	0.08
650.625	0.08
650.957	0.08
651.288	0.08
651.619	0.08
651.95	0.08
652.281	0.08
652.612	0.09
652.943	0.09
653.274	0.08
653.604	0.08
653.935	0.09
654.266	0.07
654.596	0.08
654.927	0.08
655.258	0.08
655.588	0.07
655.918	0.08
656.249	0.07
656.579	0.07
656.909	0.07
657.24	0.07
657.57	0.07
657.9	0.07
658.23	0.08
658.56	0.07
658.89	0.07
659.22	0.07
659.55	0.07
659.88	0.07
660.209	0.07
660.539	0.07
660.869	0.07
661.198	0.07
661.528	0.07
661.857	0.07
662.187	0.07
662.516	0.07
662.846	0.07
663.175	0.07
663.504	0.08
663.833	0.07
664.163	0.07
664.492	0.07
664.821	0.07
665.15	0.07
665.479	0.07
665.807	0.07
666.136	0.07
666.465	0.06
666.794	0.07
667.122	0.07
667.451	0.07
667.78	0.07
668.108	0.07
668.437	0.06
668.765	0.06
669.093	0.07
669.422	0.07
669.75	0.07
670.078	0.06
670.406	0.07
670.734	0.07
671.062	0.07
671.39	0.07
671.718	0.07
672.046	0.07
672.374	0.07
672.702	0.07
673.029	0.07
673.357	0.07
673.685	0.07
674.012	0.07
674.34	0.07
674.667	0.07
674.995	0.06
675.322	0.07
675.649	0.07
675.977	0.07
676.304	0.07
676.631	0.07
676.958	0.07
677.285	0.07
677.612	0.07
677.939	0.07
678.266	0.07
678.593	0.07
678.92	0.07
679.246	0.07
679.573	0.07
679.9	0.07
680.226	0.08
680.553	0.07
680.879	0.07
681.206	0.07
681.532	0.07
681.858	0.08
682.184	0.08
682.511	0.08
682.837	0.07
683.163	0.08
683.489	0.07
683.815	0.07
684.141	0.08
684.467	0.08
684.793	0.07
685.118	0.08
685.444	0.07
685.77	0.07
686.095	0.07
686.421	0.07
686.746	0.07
687.072	0.07
687.397	0.07
687.723	0.06
688.048	0.07
688.373	0.07
688.698	0.07
689.023	0.07
689.349	0.07
