Data from 0.01btmapaq-charge-co2_Absorbance_17-21-12-040.txt Node
Date: Wed Nov 02 17:21:12 EDT 2022
User: Kiana
Spectrometer: FLMS00943
Trigger mode: 0
Integration Time (sec): 1.000000E-1
Scans to average: 1
Electric dark correction enabled: true
Nonlinearity correction enabled: false
Boxcar width: 0
XAxis mode: Wavelengths
Number of Pixels in Spectrum: 2048
>>>>>Begin Spectral Data<<<<<
179.651	-0.16
180.037	-0.16
180.424	-0.16
180.81	-0
181.197	-0.18
181.583	-0
181.97	-0
182.356	-0
182.743	-0.56
183.129	-0
183.515	0.54
183.901	-0.28
184.288	0.27
184.674	0.22
185.06	-0.02
185.446	0.26
185.832	-0.27
186.218	-0
186.604	0.25
186.99	-0.88
187.376	-0.04
187.762	-0.59
188.148	-0.35
188.534	0.51
188.92	0.24
189.305	0.13
189.691	0.25
190.077	0.22
190.463	0.2
190.848	0.35
191.234	0.23
191.619	0.26
192.005	0.23
192.391	0.29
192.776	0.18
193.161	0.23
193.547	0.24
193.932	0.21
194.318	0.21
194.703	0.27
195.088	0.24
195.473	0.29
195.859	0.22
196.244	0.22
196.629	0.29
197.014	0.26
197.399	0.31
197.784	0.31
198.169	0.23
198.554	0.33
198.939	0.3
199.324	0.36
199.709	0.35
200.094	0.27
200.478	0.43
200.863	0.28
201.248	0.37
201.633	0.33
202.017	0.39
202.402	0.36
202.787	0.33
203.171	0.35
203.556	0.41
203.94	0.31
204.325	0.38
204.709	0.39
205.093	0.49
205.478	0.42
205.862	0.51
206.246	0.45
206.631	0.47
207.015	0.41
207.399	0.46
207.783	0.49
208.167	0.53
208.551	0.47
208.935	0.49
209.319	0.5
209.703	0.58
210.087	0.47
210.471	0.5
210.855	0.52
211.239	0.61
211.623	0.55
212.007	0.58
212.39	0.57
212.774	0.7
213.158	0.61
213.541	0.66
213.925	0.6
214.309	0.66
214.692	0.59
215.076	0.66
215.459	0.66
215.842	0.68
216.226	0.67
216.609	0.77
216.993	0.86
217.376	0.82
217.759	0.88
218.142	0.96
218.525	1.03
218.909	1.11
219.292	1.14
219.675	1.14
220.058	1.21
220.441	1.28
220.824	1.26
221.207	1.28
221.59	1.28
221.973	1.35
222.355	1.31
222.738	1.3
223.121	1.3
223.504	1.27
223.886	1.29
224.269	1.29
224.652	1.23
225.034	1.22
225.417	1.21
225.799	1.2
226.182	1.17
226.564	1.15
226.947	1.11
227.329	1.07
227.711	1.04
228.094	1.02
228.476	0.99
228.858	0.96
229.24	0.93
229.623	0.9
230.005	0.88
230.387	0.84
230.769	0.83
231.151	0.8
231.533	0.78
231.915	0.76
232.297	0.75
232.679	0.73
233.061	0.71
233.442	0.71
233.824	0.7
234.206	0.69
234.588	0.7
234.969	0.67
235.351	0.68
235.733	0.69
236.114	0.68
236.496	0.68
236.877	0.7
237.259	0.7
237.64	0.7
238.022	0.72
238.403	0.72
238.784	0.74
239.165	0.75
239.547	0.77
239.928	0.77
240.309	0.79
240.69	0.8
241.071	0.81
241.452	0.82
241.834	0.84
242.215	0.85
242.595	0.85
242.976	0.87
243.357	0.89
243.738	0.9
244.119	0.9
244.5	0.94
244.881	0.93
245.261	0.93
245.642	0.94
246.023	0.95
246.403	0.96
246.784	0.95
247.164	0.97
247.545	0.98
247.925	1
248.306	1
248.686	1
249.067	1.03
249.447	1.03
249.827	1.02
250.207	1.04
250.588	1.06
250.968	1.07
251.348	1.07
251.728	1.06
252.108	1.1
252.488	1.07
252.868	1.08
253.248	1.07
253.628	1.09
254.008	1.1
254.388	1.09
254.768	1.09
255.147	1.08
255.527	1.07
255.907	1.07
256.287	1.08
256.666	1.07
257.046	1.04
257.425	1.02
257.805	1.02
258.184	1
258.564	0.98
258.943	0.99
259.323	0.96
259.702	0.94
260.081	0.92
260.461	0.91
260.84	0.88
261.219	0.87
261.598	0.84
261.977	0.82
262.356	0.79
262.736	0.77
263.115	0.75
263.494	0.74
263.873	0.72
264.251	0.7
264.63	0.67
265.009	0.65
265.388	0.64
265.767	0.61
266.145	0.6
266.524	0.6
266.903	0.57
267.281	0.56
267.66	0.54
268.039	0.53
268.417	0.51
268.796	0.5
269.174	0.48
269.552	0.49
269.931	0.46
270.309	0.45
270.687	0.43
271.066	0.43
271.444	0.42
271.822	0.42
272.2	0.4
272.578	0.39
272.956	0.38
273.334	0.37
273.712	0.36
274.09	0.35
274.468	0.35
274.846	0.33
275.224	0.33
275.602	0.32
275.98	0.31
276.357	0.31
276.735	0.29
277.113	0.28
277.49	0.28
277.868	0.28
278.246	0.28
278.623	0.28
279.001	0.26
279.378	0.25
279.756	0.25
280.133	0.24
280.51	0.22
280.888	0.21
281.265	0.2
281.642	0.19
282.019	0.18
282.396	0.17
282.773	0.16
283.151	0.15
283.528	0.14
283.905	0.13
284.282	0.13
284.659	0.11
285.035	0.1
285.412	0.11
285.789	0.1
286.166	0.09
286.543	0.09
286.919	0.09
287.296	0.09
287.673	0.09
288.049	0.08
288.426	0.09
288.802	0.09
289.179	0.09
289.555	0.09
289.932	0.08
290.308	0.08
290.684	0.08
291.061	0.07
291.437	0.07
291.813	0.07
292.189	0.07
292.565	0.06
292.942	0.06
293.318	0.06
293.694	0.05
294.07	0.05
294.446	0.05
294.822	0.05
295.197	0.05
295.573	0.05
295.949	0.05
296.325	0.05
296.701	0.05
297.076	0.06
297.452	0.06
297.828	0.05
298.203	0.06
298.579	0.05
298.954	0.06
299.33	0.06
299.705	0.06
300.081	0.07
300.456	0.07
300.831	0.07
301.206	0.07
301.582	0.07
301.957	0.07
302.332	0.08
302.707	0.08
303.082	0.08
303.457	0.08
303.832	0.08
304.207	0.09
304.582	0.08
304.957	0.09
305.332	0.09
305.707	0.09
306.082	0.09
306.456	0.09
306.831	0.08
307.206	0.09
307.58	0.09
307.955	0.09
308.33	0.09
308.704	0.09
309.079	0.1
309.453	0.09
309.828	0.09
310.202	0.1
310.576	0.09
310.951	0.1
311.325	0.1
311.699	0.11
312.073	0.1
312.447	0.1
312.821	0.11
313.196	0.11
313.57	0.1
313.944	0.1
314.317	0.1
314.691	0.1
315.065	0.1
315.439	0.1
315.813	0.1
316.187	0.1
316.56	0.1
316.934	0.1
317.308	0.1
317.681	0.1
318.055	0.1
318.428	0.1
318.802	0.1
319.175	0.11
319.549	0.1
319.922	0.1
320.295	0.1
320.669	0.11
321.042	0.1
321.415	0.11
321.788	0.11
322.162	0.12
322.535	0.12
322.908	0.13
323.281	0.12
323.654	0.13
324.027	0.13
324.4	0.13
324.773	0.13
325.145	0.13
325.518	0.13
325.891	0.13
326.264	0.14
326.636	0.14
327.009	0.14
327.382	0.14
327.754	0.14
328.127	0.13
328.499	0.13
328.872	0.13
329.244	0.12
329.616	0.12
329.989	0.12
330.361	0.13
330.733	0.13
331.106	0.14
331.478	0.14
331.85	0.14
332.222	0.14
332.594	0.14
332.966	0.15
333.338	0.14
333.71	0.14
334.082	0.14
334.454	0.15
334.826	0.14
335.197	0.14
335.569	0.14
335.941	0.14
336.312	0.15
336.684	0.15
337.056	0.15
337.427	0.15
337.799	0.14
338.17	0.16
338.542	0.15
338.913	0.15
339.284	0.15
339.656	0.16
340.027	0.16
340.398	0.16
340.769	0.16
341.141	0.17
341.512	0.17
341.883	0.16
342.254	0.16
342.625	0.17
342.996	0.17
343.367	0.19
343.738	0.17
344.108	0.19
344.479	0.19
344.85	0.19
345.221	0.19
345.591	0.19
345.962	0.19
346.333	0.2
346.703	0.2
347.074	0.19
347.444	0.2
347.815	0.2
348.185	0.21
348.556	0.2
348.926	0.21
349.296	0.22
349.666	0.22
350.037	0.22
350.407	0.23
350.777	0.23
351.147	0.22
351.517	0.23
351.887	0.23
352.257	0.24
352.627	0.24
352.997	0.23
353.367	0.25
353.737	0.24
354.106	0.24
354.476	0.24
354.846	0.24
355.216	0.24
355.585	0.25
355.955	0.25
356.324	0.25
356.694	0.26
357.063	0.26
357.433	0.26
357.802	0.25
358.171	0.26
358.541	0.27
358.91	0.27
359.279	0.27
359.648	0.27
360.017	0.28
360.387	0.28
360.756	0.28
361.125	0.29
361.494	0.29
361.863	0.29
362.231	0.29
362.6	0.29
362.969	0.3
363.338	0.31
363.707	0.31
364.075	0.31
364.444	0.32
364.813	0.32
365.181	0.32
365.55	0.32
365.918	0.33
366.287	0.33
366.655	0.33
367.024	0.34
367.392	0.34
367.76	0.35
368.128	0.34
368.497	0.35
368.865	0.35
369.233	0.35
369.601	0.35
369.969	0.36
370.337	0.37
370.705	0.36
371.073	0.36
371.441	0.37
371.809	0.38
372.177	0.37
372.544	0.38
372.912	0.38
373.28	0.37
373.647	0.39
374.015	0.39
374.383	0.38
374.75	0.38
375.118	0.4
375.485	0.38
375.853	0.39
376.22	0.4
376.587	0.39
376.955	0.4
377.322	0.4
377.689	0.4
378.056	0.41
378.423	0.4
378.79	0.41
379.157	0.41
379.524	0.41
379.891	0.42
380.258	0.42
380.625	0.42
380.992	0.43
381.359	0.43
381.726	0.43
382.092	0.43
382.459	0.43
382.826	0.44
383.192	0.43
383.559	0.45
383.925	0.45
384.292	0.44
384.658	0.45
385.025	0.45
385.391	0.46
385.757	0.45
386.123	0.45
386.49	0.47
386.856	0.46
387.222	0.47
387.588	0.47
387.954	0.47
388.32	0.46
388.686	0.46
389.052	0.47
389.418	0.47
389.784	0.46
390.15	0.47
390.515	0.47
390.881	0.47
391.247	0.48
391.613	0.47
391.978	0.48
392.344	0.47
392.709	0.47
393.075	0.47
393.44	0.47
393.806	0.47
394.171	0.47
394.536	0.47
394.902	0.47
395.267	0.46
395.632	0.47
395.997	0.46
396.362	0.47
396.727	0.46
397.092	0.46
397.457	0.46
397.822	0.45
398.187	0.45
398.552	0.44
398.917	0.44
399.282	0.45
399.646	0.44
400.011	0.44
400.376	0.44
400.74	0.43
401.105	0.43
401.47	0.43
401.834	0.43
402.199	0.43
402.563	0.43
402.927	0.43
403.292	0.41
403.656	0.43
404.02	0.43
404.384	0.43
404.749	0.41
405.113	0.41
405.477	0.41
405.841	0.41
406.205	0.4
406.569	0.41
406.933	0.39
407.296	0.4
407.66	0.4
408.024	0.4
408.388	0.4
408.752	0.39
409.115	0.39
409.479	0.39
409.842	0.39
410.206	0.39
410.569	0.39
410.933	0.38
411.296	0.37
411.66	0.38
412.023	0.37
412.386	0.37
412.749	0.36
413.113	0.37
413.476	0.37
413.839	0.37
414.202	0.35
414.565	0.35
414.928	0.36
415.291	0.37
415.654	0.35
416.017	0.35
416.38	0.35
416.742	0.35
417.105	0.34
417.468	0.34
417.83	0.34
418.193	0.33
418.556	0.33
418.918	0.33
419.281	0.33
419.643	0.32
420.005	0.33
420.368	0.32
420.73	0.32
421.092	0.32
421.455	0.3
421.817	0.3
422.179	0.3
422.541	0.29
422.903	0.3
423.265	0.29
423.627	0.29
423.989	0.29
424.351	0.29
424.713	0.28
425.075	0.28
425.436	0.28
425.798	0.27
426.16	0.29
426.521	0.29
426.883	0.28
427.245	0.28
427.606	0.28
427.967	0.27
428.329	0.28
428.69	0.27
429.052	0.27
429.413	0.27
429.774	0.26
430.135	0.26
430.497	0.26
430.858	0.25
431.219	0.25
431.58	0.25
431.941	0.25
432.302	0.25
432.663	0.26
433.024	0.25
433.384	0.23
433.745	0.24
434.106	0.25
434.467	0.24
434.827	0.23
435.188	0.24
435.548	0.23
435.909	0.24
436.269	0.22
436.63	0.23
436.99	0.23
437.351	0.23
437.711	0.23
438.071	0.21
438.431	0.22
438.792	0.21
439.152	0.21
439.512	0.21
439.872	0.22
440.232	0.22
440.592	0.22
440.952	0.2
441.312	0.21
441.671	0.2
442.031	0.2
442.391	0.2
442.751	0.2
443.11	0.2
443.47	0.19
443.83	0.19
444.189	0.19
444.549	0.19
444.908	0.2
445.267	0.18
445.627	0.18
445.986	0.17
446.345	0.18
446.705	0.18
447.064	0.18
447.423	0.17
447.782	0.16
448.141	0.17
448.5	0.17
448.859	0.16
449.218	0.16
449.577	0.15
449.936	0.15
450.295	0.15
450.653	0.15
451.012	0.15
451.371	0.14
451.729	0.14
452.088	0.15
452.447	0.14
452.805	0.14
453.163	0.13
453.522	0.13
453.88	0.13
454.239	0.13
454.597	0.13
454.955	0.13
455.313	0.13
455.671	0.12
456.029	0.13
456.388	0.13
456.746	0.12
457.104	0.12
457.461	0.12
457.819	0.11
458.177	0.12
458.535	0.11
458.893	0.11
459.25	0.11
459.608	0.11
459.966	0.11
460.323	0.1
460.681	0.11
461.038	0.1
461.396	0.1
461.753	0.1
462.111	0.1
462.468	0.1
462.825	0.1
463.182	0.1
463.54	0.1
463.897	0.1
464.254	0.1
464.611	0.1
464.968	0.09
465.325	0.09
465.682	0.09
466.039	0.09
466.395	0.09
466.752	0.09
467.109	0.09
467.466	0.09
467.822	0.09
468.179	0.09
468.535	0.09
468.892	0.09
469.248	0.09
469.605	0.09
469.961	0.09
470.318	0.09
470.674	0.1
471.03	0.09
471.386	0.08
471.743	0.09
472.099	0.09
472.455	0.09
472.811	0.09
473.167	0.09
473.523	0.09
473.879	0.09
474.235	0.09
474.59	0.09
474.946	0.09
475.302	0.09
475.657	0.08
476.013	0.09
476.369	0.08
476.724	0.08
477.08	0.08
477.435	0.08
477.791	0.08
478.146	0.08
478.501	0.08
478.857	0.08
479.212	0.07
479.567	0.07
479.922	0.07
480.277	0.07
480.632	0.07
480.987	0.06
481.342	0.06
481.697	0.06
482.052	0.06
482.407	0.06
482.762	0.06
483.116	0.05
483.471	0.05
483.826	0.06
484.18	0.05
484.535	0.05
484.89	0.05
485.244	0.05
485.598	0.05
485.953	0.05
486.307	0.05
486.661	0.05
487.016	0.05
487.37	0.04
487.724	0.05
488.078	0.05
488.432	0.05
488.786	0.05
489.14	0.04
489.494	0.04
489.848	0.05
490.202	0.05
490.556	0.05
490.91	0.05
491.263	0.05
491.617	0.05
491.971	0.05
492.324	0.05
492.678	0.05
493.031	0.05
493.385	0.05
493.738	0.05
494.091	0.05
494.445	0.05
494.798	0.05
495.151	0.05
495.504	0.05
495.857	0.05
496.21	0.06
496.564	0.05
496.916	0.05
497.269	0.05
497.622	0.05
497.975	0.06
498.328	0.06
498.681	0.06
499.033	0.06
499.386	0.06
499.739	0.06
500.091	0.06
500.444	0.07
500.796	0.07
501.149	0.07
501.501	0.07
501.854	0.07
502.206	0.07
502.558	0.07
502.91	0.08
503.263	0.08
503.615	0.08
503.967	0.08
504.319	0.08
504.671	0.08
505.023	0.08
505.375	0.08
505.726	0.09
506.078	0.08
506.43	0.09
506.782	0.09
507.133	0.08
507.485	0.09
507.837	0.09
508.188	0.08
508.54	0.08
508.891	0.09
509.243	0.08
509.594	0.08
509.945	0.08
510.296	0.09
510.648	0.08
510.999	0.08
511.35	0.08
511.701	0.08
512.052	0.08
512.403	0.08
512.754	0.08
513.105	0.08
513.456	0.08
513.807	0.08
514.157	0.08
514.508	0.07
514.859	0.08
515.209	0.08
515.56	0.08
515.91	0.08
516.261	0.08
516.611	0.07
516.962	0.07
517.312	0.07
517.662	0.07
518.013	0.07
518.363	0.07
518.713	0.07
519.063	0.07
519.413	0.06
519.763	0.06
520.113	0.06
520.463	0.06
520.813	0.06
521.163	0.06
521.512	0.07
521.862	0.06
522.212	0.06
522.562	0.06
522.911	0.06
523.261	0.06
523.61	0.06
523.96	0.07
524.309	0.06
524.658	0.06
525.008	0.06
525.357	0.06
525.706	0.06
526.056	0.06
526.405	0.06
526.754	0.06
527.103	0.06
527.452	0.06
527.801	0.06
528.15	0.06
528.499	0.06
528.847	0.07
529.196	0.06
529.545	0.07
529.893	0.07
530.242	0.07
530.591	0.07
530.939	0.07
531.288	0.07
531.636	0.07
531.985	0.08
532.333	0.07
532.681	0.07
533.029	0.07
533.378	0.07
533.726	0.07
534.074	0.07
534.422	0.07
534.77	0.07
535.118	0.07
535.466	0.07
535.814	0.07
536.162	0.08
536.509	0.07
536.857	0.07
537.205	0.08
537.552	0.07
537.9	0.07
538.248	0.07
538.595	0.08
538.943	0.07
539.29	0.07
539.637	0.07
539.985	0.08
540.332	0.08
540.679	0.07
541.026	0.08
541.373	0.07
541.721	0.08
542.068	0.07
542.415	0.08
542.762	0.07
543.108	0.06
543.455	0.07
543.802	0.07
544.149	0.07
544.496	0.07
544.842	0.07
545.189	0.07
545.535	0.07
545.882	0.08
546.228	0.07
546.575	0.07
546.921	0.08
547.267	0.07
547.614	0.08
547.96	0.08
548.306	0.08
548.652	0.08
548.998	0.07
549.344	0.09
549.69	0.08
550.036	0.08
550.382	0.08
550.728	0.09
551.074	0.08
551.42	0.08
551.765	0.08
552.111	0.07
552.457	0.08
552.802	0.08
553.148	0.08
553.493	0.08
553.839	0.07
554.184	0.08
554.529	0.08
554.875	0.08
555.22	0.07
555.565	0.07
555.91	0.08
556.255	0.07
556.6	0.08
556.945	0.07
557.29	0.07
557.635	0.07
557.98	0.08
558.325	0.08
558.67	0.07
559.014	0.08
559.359	0.08
559.704	0.07
560.048	0.07
560.393	0.07
560.737	0.08
561.082	0.07
561.426	0.08
561.77	0.07
562.115	0.08
562.459	0.08
562.803	0.08
563.147	0.08
563.491	0.08
563.835	0.08
564.179	0.08
564.523	0.08
564.867	0.09
565.211	0.09
565.555	0.08
565.899	0.08
566.242	0.08
566.586	0.08
566.93	0.08
567.273	0.08
567.617	0.08
567.96	0.08
568.304	0.08
568.647	0.08
568.99	0.07
569.334	0.08
569.677	0.08
570.02	0.08
570.363	0.09
570.706	0.08
571.049	0.09
571.392	0.09
571.735	0.09
572.078	0.09
572.421	0.09
572.764	0.08
573.106	0.09
573.449	0.09
573.792	0.09
574.134	0.09
574.477	0.09
574.819	0.1
575.162	0.09
575.504	0.09
575.847	0.08
576.189	0.08
576.531	0.08
576.873	0.08
577.215	0.09
577.558	0.08
577.9	0.07
578.242	0.08
578.584	0.08
578.926	0.08
579.267	0.08
579.609	0.08
579.951	0.07
580.293	0.08
580.634	0.08
580.976	0.08
581.318	0.08
581.659	0.08
582.001	0.08
582.342	0.08
582.683	0.08
583.025	0.08
583.366	0.08
583.707	0.07
584.049	0.08
584.39	0.07
584.731	0.07
585.072	0.07
585.413	0.07
585.754	0.07
586.095	0.07
586.435	0.08
586.776	0.08
587.117	0.07
587.458	0.08
587.798	0.08
588.139	0.08
588.48	0.09
588.82	0.08
589.161	0.08
589.501	0.08
589.841	0.08
590.182	0.08
590.522	0.07
590.862	0.07
591.202	0.08
591.542	0.07
591.882	0.08
592.222	0.08
592.562	0.07
592.902	0.08
593.242	0.08
593.582	0.07
593.922	0.07
594.261	0.07
594.601	0.07
594.941	0.07
595.28	0.07
595.62	0.08
595.959	0.07
596.299	0.08
596.638	0.07
596.977	0.08
597.317	0.08
597.656	0.08
597.995	0.08
598.334	0.09
598.673	0.07
599.012	0.08
599.351	0.08
599.69	0.07
600.029	0.07
600.368	0.07
600.707	0.07
601.046	0.07
601.384	0.08
601.723	0.08
602.061	0.07
602.4	0.08
602.738	0.07
603.077	0.08
603.415	0.07
603.754	0.08
604.092	0.09
604.43	0.08
604.768	0.08
605.107	0.08
605.445	0.07
605.783	0.08
606.121	0.07
606.459	0.07
606.796	0.07
607.134	0.07
607.472	0.08
607.81	0.08
608.148	0.08
608.485	0.08
608.823	0.08
609.16	0.07
609.498	0.08
609.835	0.08
610.173	0.08
610.51	0.07
610.847	0.08
611.185	0.07
611.522	0.08
611.859	0.07
612.196	0.08
612.533	0.07
612.87	0.07
613.207	0.07
613.544	0.07
613.881	0.07
614.217	0.07
614.554	0.07
614.891	0.07
615.228	0.07
615.564	0.07
615.901	0.07
616.237	0.07
616.574	0.07
616.91	0.07
617.246	0.07
617.583	0.07
617.919	0.07
618.255	0.08
618.591	0.07
618.927	0.07
619.263	0.07
619.599	0.07
619.935	0.07
620.271	0.07
620.607	0.07
620.943	0.07
621.279	0.07
621.614	0.07
621.95	0.07
622.286	0.07
622.621	0.07
622.957	0.07
623.292	0.07
623.627	0.06
623.963	0.07
624.298	0.07
624.633	0.07
624.968	0.07
625.304	0.07
625.639	0.07
625.974	0.06
626.309	0.07
626.644	0.06
626.979	0.06
627.313	0.07
627.648	0.07
627.983	0.07
628.318	0.07
628.652	0.07
628.987	0.06
629.321	0.07
629.656	0.07
629.99	0.07
630.325	0.06
630.659	0.06
630.993	0.06
631.327	0.07
631.662	0.06
631.996	0.06
632.33	0.06
632.664	0.06
632.998	0.07
633.332	0.07
633.666	0.06
633.999	0.06
634.333	0.06
634.667	0.06
635.001	0.06
635.334	0.06
635.668	0.07
636.001	0.06
636.335	0.06
636.668	0.06
637.001	0.06
637.335	0.06
637.668	0.06
638.001	0.07
638.334	0.07
638.668	0.06
639.001	0.07
639.334	0.06
639.667	0.06
639.999	0.07
640.332	0.06
640.665	0.06
640.998	0.06
641.331	0.06
641.663	0.06
641.996	0.07
642.328	0.06
642.661	0.06
642.993	0.06
643.326	0.07
643.658	0.06
643.99	0.06
644.323	0.06
644.655	0.06
644.987	0.06
645.319	0.06
645.651	0.07
645.983	0.07
646.315	0.07
646.647	0.07
646.979	0.07
647.31	0.07
647.642	0.07
647.974	0.07
648.305	0.07
648.637	0.06
648.968	0.07
649.3	0.07
649.631	0.07
649.963	0.07
650.294	0.07
650.625	0.07
650.957	0.07
651.288	0.07
651.619	0.07
651.95	0.07
652.281	0.07
652.612	0.07
652.943	0.08
653.274	0.07
653.604	0.07
653.935	0.07
654.266	0.06
654.596	0.07
654.927	0.07
655.258	0.07
655.588	0.06
655.918	0.06
656.249	0.06
656.579	0.06
656.909	0.06
657.24	0.06
657.57	0.06
657.9	0.06
658.23	0.06
658.56	0.06
658.89	0.06
659.22	0.06
659.55	0.06
659.88	0.06
660.209	0.06
660.539	0.06
660.869	0.06
661.198	0.06
661.528	0.06
661.857	0.06
662.187	0.06
662.516	0.06
662.846	0.06
663.175	0.06
663.504	0.06
663.833	0.06
664.163	0.06
664.492	0.06
664.821	0.06
665.15	0.06
665.479	0.06
665.807	0.06
666.136	0.06
666.465	0.06
666.794	0.06
667.122	0.05
667.451	0.06
667.78	0.06
668.108	0.06
668.437	0.06
668.765	0.05
669.093	0.05
669.422	0.05
669.75	0.06
670.078	0.05
670.406	0.06
670.734	0.05
671.062	0.05
671.39	0.06
671.718	0.06
672.046	0.06
672.374	0.06
672.702	0.06
673.029	0.06
673.357	0.06
673.685	0.06
674.012	0.06
674.34	0.06
674.667	0.07
674.995	0.06
675.322	0.06
675.649	0.06
675.977	0.06
676.304	0.06
676.631	0.07
676.958	0.06
677.285	0.06
677.612	0.07
677.939	0.06
678.266	0.07
678.593	0.06
678.92	0.06
679.246	0.06
679.573	0.06
679.9	0.06
680.226	0.06
680.553	0.07
680.879	0.06
681.206	0.06
681.532	0.07
681.858	0.06
682.184	0.07
682.511	0.07
682.837	0.07
683.163	0.07
683.489	0.07
683.815	0.06
684.141	0.07
684.467	0.06
684.793	0.06
685.118	0.07
685.444	0.06
685.77	0.06
686.095	0.06
686.421	0.06
686.746	0.06
687.072	0.06
687.397	0.06
