Data from 0.01btmapaq-charge-co2_Absorbance_17-21-27-041.txt Node
Date: Wed Nov 02 17:21:27 EDT 2022
User: Kiana
Spectrometer: FLMS00943
Trigger mode: 0
Integration Time (sec): 1.000000E-1
Scans to average: 1
Electric dark correction enabled: true
Nonlinearity correction enabled: false
Boxcar width: 0
XAxis mode: Wavelengths
Number of Pixels in Spectrum: 2048
>>>>>Begin Spectral Data<<<<<
179.651	-0
180.037	-0
180.424	-0
180.81	-0
181.197	-0.33
181.583	-0.39
181.97	-0.25
182.356	-0
182.743	0.16
183.129	-0
183.515	-0
183.901	1.07
184.288	0.04
184.674	0.1
185.06	0.37
185.446	0.76
185.832	0.01
186.218	0.65
186.604	1.94
186.99	-0
187.376	-0.11
187.762	-0
188.148	0.14
188.534	0.18
188.92	0.2
189.305	0.21
189.691	0.25
190.077	0.19
190.463	0.12
190.848	0.27
191.234	0.2
191.619	0.23
192.005	0.24
192.391	0.33
192.776	0.17
193.161	0.13
193.547	0.17
193.932	0.3
194.318	0.25
194.703	0.33
195.088	0.26
195.473	0.24
195.859	0.26
196.244	0.27
196.629	0.31
197.014	0.23
197.399	0.36
197.784	0.27
198.169	0.35
198.554	0.31
198.939	0.33
199.324	0.28
199.709	0.32
200.094	0.35
200.478	0.31
200.863	0.28
201.248	0.32
201.633	0.43
202.017	0.44
202.402	0.35
202.787	0.29
203.171	0.4
203.556	0.43
203.94	0.4
204.325	0.37
204.709	0.45
205.093	0.41
205.478	0.43
205.862	0.46
206.246	0.5
206.631	0.43
207.015	0.47
207.399	0.46
207.783	0.49
208.167	0.49
208.551	0.54
208.935	0.49
209.319	0.52
209.703	0.53
210.087	0.5
210.471	0.49
210.855	0.55
211.239	0.5
211.623	0.52
212.007	0.59
212.39	0.63
212.774	0.66
213.158	0.66
213.541	0.61
213.925	0.63
214.309	0.67
214.692	0.67
215.076	0.64
215.459	0.66
215.842	0.68
216.226	0.67
216.609	0.73
216.993	0.86
217.376	0.84
217.759	0.88
218.142	0.97
218.525	1.01
218.909	1.07
219.292	1.1
219.675	1.12
220.058	1.17
220.441	1.21
220.824	1.26
221.207	1.24
221.59	1.29
221.973	1.3
222.355	1.27
222.738	1.3
223.121	1.28
223.504	1.27
223.886	1.27
224.269	1.23
224.652	1.27
225.034	1.21
225.417	1.18
225.799	1.19
226.182	1.14
226.564	1.15
226.947	1.09
227.329	1.08
227.711	1.04
228.094	1.02
228.476	0.98
228.858	0.97
229.24	0.93
229.623	0.91
230.005	0.88
230.387	0.86
230.769	0.83
231.151	0.81
231.533	0.8
231.915	0.78
232.297	0.77
232.679	0.76
233.061	0.75
233.442	0.73
233.824	0.73
234.206	0.71
234.588	0.72
234.969	0.71
235.351	0.72
235.733	0.72
236.114	0.72
236.496	0.73
236.877	0.73
237.259	0.74
237.64	0.75
238.022	0.75
238.403	0.77
238.784	0.79
239.165	0.82
239.547	0.82
239.928	0.84
240.309	0.86
240.69	0.87
241.071	0.89
241.452	0.89
241.834	0.9
242.215	0.92
242.595	0.93
242.976	0.95
243.357	0.99
243.738	0.99
244.119	1.01
244.5	1.02
244.881	1.04
245.261	1.04
245.642	1.04
246.023	1.06
246.403	1.07
246.784	1.07
247.164	1.08
247.545	1.09
247.925	1.11
248.306	1.13
248.686	1.11
249.067	1.15
249.447	1.16
249.827	1.16
250.207	1.18
250.588	1.19
250.968	1.2
251.348	1.19
251.728	1.18
252.108	1.21
252.488	1.21
252.868	1.22
253.248	1.21
253.628	1.21
254.008	1.22
254.388	1.21
254.768	1.23
255.147	1.19
255.527	1.2
255.907	1.2
256.287	1.18
256.666	1.18
257.046	1.14
257.425	1.14
257.805	1.12
258.184	1.1
258.564	1.07
258.943	1.06
259.323	1.05
259.702	1.01
260.081	0.99
260.461	0.98
260.84	0.96
261.219	0.93
261.598	0.9
261.977	0.88
262.356	0.85
262.736	0.83
263.115	0.81
263.494	0.78
263.873	0.76
264.251	0.74
264.63	0.71
265.009	0.68
265.388	0.66
265.767	0.64
266.145	0.63
266.524	0.61
266.903	0.59
267.281	0.57
267.66	0.56
268.039	0.54
268.417	0.53
268.796	0.51
269.174	0.49
269.552	0.49
269.931	0.47
270.309	0.45
270.687	0.44
271.066	0.42
271.444	0.42
271.822	0.41
272.2	0.4
272.578	0.39
272.956	0.37
273.334	0.36
273.712	0.35
274.09	0.34
274.468	0.34
274.846	0.32
275.224	0.31
275.602	0.3
275.98	0.29
276.357	0.29
276.735	0.27
277.113	0.28
277.49	0.27
277.868	0.27
278.246	0.26
278.623	0.26
279.001	0.24
279.378	0.23
279.756	0.22
280.133	0.22
280.51	0.2
280.888	0.18
281.265	0.19
281.642	0.17
282.019	0.17
282.396	0.15
282.773	0.14
283.151	0.13
283.528	0.12
283.905	0.12
284.282	0.11
284.659	0.1
285.035	0.1
285.412	0.1
285.789	0.09
286.166	0.09
286.543	0.09
286.919	0.08
287.296	0.08
287.673	0.08
288.049	0.08
288.426	0.08
288.802	0.08
289.179	0.08
289.555	0.08
289.932	0.09
290.308	0.08
290.684	0.07
291.061	0.07
291.437	0.07
291.813	0.07
292.189	0.07
292.565	0.06
292.942	0.06
293.318	0.05
293.694	0.05
294.07	0.05
294.446	0.05
294.822	0.05
295.197	0.05
295.573	0.05
295.949	0.05
296.325	0.05
296.701	0.05
297.076	0.05
297.452	0.06
297.828	0.05
298.203	0.06
298.579	0.05
298.954	0.06
299.33	0.06
299.705	0.06
300.081	0.06
300.456	0.07
300.831	0.07
301.206	0.07
301.582	0.07
301.957	0.07
302.332	0.08
302.707	0.08
303.082	0.08
303.457	0.08
303.832	0.08
304.207	0.08
304.582	0.08
304.957	0.08
305.332	0.08
305.707	0.08
306.082	0.08
306.456	0.09
306.831	0.08
307.206	0.09
307.58	0.08
307.955	0.08
308.33	0.08
308.704	0.09
309.079	0.09
309.453	0.09
309.828	0.09
310.202	0.09
310.576	0.09
310.951	0.09
311.325	0.1
311.699	0.1
312.073	0.1
312.447	0.1
312.821	0.1
313.196	0.1
313.57	0.11
313.944	0.1
314.317	0.1
314.691	0.1
315.065	0.1
315.439	0.1
315.813	0.1
316.187	0.1
316.56	0.1
316.934	0.09
317.308	0.1
317.681	0.1
318.055	0.1
318.428	0.09
318.802	0.09
319.175	0.1
319.549	0.09
319.922	0.1
320.295	0.1
320.669	0.1
321.042	0.1
321.415	0.1
321.788	0.1
322.162	0.11
322.535	0.12
322.908	0.12
323.281	0.12
323.654	0.12
324.027	0.13
324.4	0.12
324.773	0.12
325.145	0.13
325.518	0.13
325.891	0.12
326.264	0.14
326.636	0.14
327.009	0.13
327.382	0.14
327.754	0.13
328.127	0.13
328.499	0.12
328.872	0.12
329.244	0.12
329.616	0.12
329.989	0.12
330.361	0.12
330.733	0.13
331.106	0.13
331.478	0.13
331.85	0.14
332.222	0.14
332.594	0.14
332.966	0.14
333.338	0.14
333.71	0.13
334.082	0.14
334.454	0.14
334.826	0.14
335.197	0.14
335.569	0.14
335.941	0.14
336.312	0.14
336.684	0.14
337.056	0.14
337.427	0.14
337.799	0.15
338.17	0.15
338.542	0.15
338.913	0.15
339.284	0.16
339.656	0.15
340.027	0.15
340.398	0.16
340.769	0.16
341.141	0.16
341.512	0.16
341.883	0.16
342.254	0.16
342.625	0.17
342.996	0.17
343.367	0.18
343.738	0.17
344.108	0.18
344.479	0.18
344.85	0.18
345.221	0.19
345.591	0.19
345.962	0.19
346.333	0.19
346.703	0.2
347.074	0.19
347.444	0.19
347.815	0.2
348.185	0.21
348.556	0.2
348.926	0.2
349.296	0.21
349.666	0.22
350.037	0.22
350.407	0.23
350.777	0.22
351.147	0.22
351.517	0.23
351.887	0.23
352.257	0.24
352.627	0.24
352.997	0.23
353.367	0.24
353.737	0.24
354.106	0.24
354.476	0.24
354.846	0.24
355.216	0.24
355.585	0.24
355.955	0.25
356.324	0.25
356.694	0.26
357.063	0.26
357.433	0.26
357.802	0.27
358.171	0.26
358.541	0.27
358.91	0.27
359.279	0.27
359.648	0.28
360.017	0.28
360.387	0.29
360.756	0.29
361.125	0.29
361.494	0.29
361.863	0.28
362.231	0.3
362.6	0.29
362.969	0.31
363.338	0.31
363.707	0.31
364.075	0.32
364.444	0.33
364.813	0.31
365.181	0.33
365.55	0.33
365.918	0.33
366.287	0.34
366.655	0.33
367.024	0.34
367.392	0.35
367.76	0.35
368.128	0.35
368.497	0.36
368.865	0.37
369.233	0.36
369.601	0.37
369.969	0.36
370.337	0.37
370.705	0.38
371.073	0.38
371.441	0.38
371.809	0.38
372.177	0.39
372.544	0.38
372.912	0.39
373.28	0.38
373.647	0.39
374.015	0.4
374.383	0.4
374.75	0.39
375.118	0.41
375.485	0.4
375.853	0.39
376.22	0.4
376.587	0.4
376.955	0.41
377.322	0.41
377.689	0.41
378.056	0.42
378.423	0.42
378.79	0.41
379.157	0.42
379.524	0.42
379.891	0.42
380.258	0.44
380.625	0.43
380.992	0.43
381.359	0.44
381.726	0.44
382.092	0.45
382.459	0.45
382.826	0.46
383.192	0.45
383.559	0.47
383.925	0.46
384.292	0.46
384.658	0.47
385.025	0.47
385.391	0.48
385.757	0.46
386.123	0.47
386.49	0.48
386.856	0.47
387.222	0.48
387.588	0.49
387.954	0.49
388.32	0.49
388.686	0.48
389.052	0.49
389.418	0.49
389.784	0.48
390.15	0.49
390.515	0.49
390.881	0.5
391.247	0.5
391.613	0.49
391.978	0.49
392.344	0.49
392.709	0.48
393.075	0.49
393.44	0.49
393.806	0.48
394.171	0.48
394.536	0.49
394.902	0.48
395.267	0.49
395.632	0.48
395.997	0.47
396.362	0.48
396.727	0.47
397.092	0.48
397.457	0.47
397.822	0.46
398.187	0.46
398.552	0.45
398.917	0.45
399.282	0.46
399.646	0.44
400.011	0.45
400.376	0.43
400.74	0.43
401.105	0.44
401.47	0.44
401.834	0.43
402.199	0.43
402.563	0.43
402.927	0.43
403.292	0.43
403.656	0.43
404.02	0.44
404.384	0.42
404.749	0.41
405.113	0.4
405.477	0.41
405.841	0.41
406.205	0.4
406.569	0.4
406.933	0.41
407.296	0.4
407.66	0.4
408.024	0.39
408.388	0.39
408.752	0.4
409.115	0.4
409.479	0.39
409.842	0.38
410.206	0.38
410.569	0.39
410.933	0.38
411.296	0.38
411.66	0.38
412.023	0.37
412.386	0.37
412.749	0.36
413.113	0.36
413.476	0.37
413.839	0.37
414.202	0.35
414.565	0.36
414.928	0.35
415.291	0.36
415.654	0.34
416.017	0.34
416.38	0.34
416.742	0.35
417.105	0.34
417.468	0.33
417.83	0.34
418.193	0.32
418.556	0.32
418.918	0.32
419.281	0.32
419.643	0.32
420.005	0.33
420.368	0.32
420.73	0.33
421.092	0.31
421.455	0.31
421.817	0.3
422.179	0.29
422.541	0.3
422.903	0.3
423.265	0.28
423.627	0.3
423.989	0.29
424.351	0.28
424.713	0.27
425.075	0.28
425.436	0.28
425.798	0.27
426.16	0.28
426.521	0.28
426.883	0.28
427.245	0.27
427.606	0.28
427.967	0.28
428.329	0.27
428.69	0.28
429.052	0.28
429.413	0.27
429.774	0.27
430.135	0.26
430.497	0.26
430.858	0.26
431.219	0.26
431.58	0.25
431.941	0.25
432.302	0.25
432.663	0.27
433.024	0.26
433.384	0.23
433.745	0.24
434.106	0.25
434.467	0.24
434.827	0.23
435.188	0.24
435.548	0.24
435.909	0.24
436.269	0.22
436.63	0.23
436.99	0.24
437.351	0.23
437.711	0.23
438.071	0.22
438.431	0.22
438.792	0.22
439.152	0.23
439.512	0.21
439.872	0.22
440.232	0.21
440.592	0.22
440.952	0.21
441.312	0.2
441.671	0.22
442.031	0.21
442.391	0.19
442.751	0.2
443.11	0.2
443.47	0.2
443.83	0.18
444.189	0.2
444.549	0.19
444.908	0.2
445.267	0.18
445.627	0.18
445.986	0.18
446.345	0.17
446.705	0.18
447.064	0.18
447.423	0.16
447.782	0.16
448.141	0.17
448.5	0.17
448.859	0.16
449.218	0.16
449.577	0.15
449.936	0.15
450.295	0.15
450.653	0.15
451.012	0.15
451.371	0.14
451.729	0.14
452.088	0.15
452.447	0.14
452.805	0.14
453.163	0.13
453.522	0.13
453.88	0.13
454.239	0.13
454.597	0.12
454.955	0.13
455.313	0.13
455.671	0.12
456.029	0.12
456.388	0.13
456.746	0.12
457.104	0.12
457.461	0.11
457.819	0.11
458.177	0.11
458.535	0.12
458.893	0.11
459.25	0.11
459.608	0.11
459.966	0.11
460.323	0.1
460.681	0.11
461.038	0.11
461.396	0.1
461.753	0.1
462.111	0.11
462.468	0.1
462.825	0.1
463.182	0.1
463.54	0.09
463.897	0.1
464.254	0.1
464.611	0.09
464.968	0.09
465.325	0.09
465.682	0.09
466.039	0.1
466.395	0.09
466.752	0.09
467.109	0.1
467.466	0.09
467.822	0.1
468.179	0.09
468.535	0.09
468.892	0.09
469.248	0.1
469.605	0.09
469.961	0.1
470.318	0.09
470.674	0.1
471.03	0.09
471.386	0.09
471.743	0.09
472.099	0.08
472.455	0.09
472.811	0.08
473.167	0.09
473.523	0.09
473.879	0.09
474.235	0.09
474.59	0.09
474.946	0.09
475.302	0.09
475.657	0.09
476.013	0.08
476.369	0.08
476.724	0.08
477.08	0.09
477.435	0.08
477.791	0.08
478.146	0.08
478.501	0.07
478.857	0.08
479.212	0.07
479.567	0.07
479.922	0.07
480.277	0.06
480.632	0.07
480.987	0.07
481.342	0.06
481.697	0.06
482.052	0.06
482.407	0.06
482.762	0.06
483.116	0.05
483.471	0.05
483.826	0.05
484.18	0.05
484.535	0.05
484.89	0.05
485.244	0.05
485.598	0.05
485.953	0.05
486.307	0.05
486.661	0.05
487.016	0.05
487.37	0.05
487.724	0.05
488.078	0.05
488.432	0.05
488.786	0.05
489.14	0.05
489.494	0.05
489.848	0.05
490.202	0.05
490.556	0.05
490.91	0.05
491.263	0.05
491.617	0.05
491.971	0.05
492.324	0.05
492.678	0.05
493.031	0.05
493.385	0.05
493.738	0.05
494.091	0.05
494.445	0.05
494.798	0.05
495.151	0.05
495.504	0.05
495.857	0.05
496.21	0.06
496.564	0.06
496.916	0.05
497.269	0.05
497.622	0.06
497.975	0.06
498.328	0.05
498.681	0.06
499.033	0.06
499.386	0.06
499.739	0.06
500.091	0.06
500.444	0.06
500.796	0.07
501.149	0.07
501.501	0.07
501.854	0.07
502.206	0.07
502.558	0.07
502.91	0.08
503.263	0.08
503.615	0.08
503.967	0.08
504.319	0.08
504.671	0.08
505.023	0.08
505.375	0.09
505.726	0.09
506.078	0.08
506.43	0.09
506.782	0.08
507.133	0.08
507.485	0.09
507.837	0.08
508.188	0.08
508.54	0.08
508.891	0.09
509.243	0.08
509.594	0.08
509.945	0.09
510.296	0.09
510.648	0.08
510.999	0.09
511.35	0.08
511.701	0.08
512.052	0.08
512.403	0.08
512.754	0.08
513.105	0.08
513.456	0.08
513.807	0.08
514.157	0.08
514.508	0.08
514.859	0.08
515.209	0.08
515.56	0.08
515.91	0.08
516.261	0.08
516.611	0.08
516.962	0.08
517.312	0.07
517.662	0.07
518.013	0.07
518.363	0.07
518.713	0.07
519.063	0.07
519.413	0.07
519.763	0.07
520.113	0.07
520.463	0.06
520.813	0.06
521.163	0.06
521.512	0.07
521.862	0.06
522.212	0.06
522.562	0.07
522.911	0.06
523.261	0.06
523.61	0.06
523.96	0.07
524.309	0.06
524.658	0.06
525.008	0.06
525.357	0.06
525.706	0.06
526.056	0.06
526.405	0.06
526.754	0.06
527.103	0.06
527.452	0.07
527.801	0.06
528.15	0.06
528.499	0.06
528.847	0.06
529.196	0.07
529.545	0.06
529.893	0.06
530.242	0.07
530.591	0.07
530.939	0.07
531.288	0.07
531.636	0.07
531.985	0.08
532.333	0.08
532.681	0.08
533.029	0.08
533.378	0.08
533.726	0.08
534.074	0.07
534.422	0.08
534.77	0.07
535.118	0.07
535.466	0.07
535.814	0.07
536.162	0.07
536.509	0.07
536.857	0.07
537.205	0.07
537.552	0.07
537.9	0.07
538.248	0.07
538.595	0.08
538.943	0.07
539.29	0.07
539.637	0.07
539.985	0.07
540.332	0.08
540.679	0.07
541.026	0.08
541.373	0.07
541.721	0.07
542.068	0.07
542.415	0.07
542.762	0.07
543.108	0.07
543.455	0.07
543.802	0.08
544.149	0.07
544.496	0.07
544.842	0.07
545.189	0.07
545.535	0.07
545.882	0.08
546.228	0.08
546.575	0.07
546.921	0.07
547.267	0.08
547.614	0.08
547.96	0.08
548.306	0.08
548.652	0.08
548.998	0.08
549.344	0.09
549.69	0.08
550.036	0.08
550.382	0.08
550.728	0.09
551.074	0.08
551.42	0.08
551.765	0.08
552.111	0.08
552.457	0.08
552.802	0.08
553.148	0.08
553.493	0.08
553.839	0.08
554.184	0.08
554.529	0.08
554.875	0.08
555.22	0.08
555.565	0.07
555.91	0.08
556.255	0.08
556.6	0.08
556.945	0.07
557.29	0.08
557.635	0.07
557.98	0.08
558.325	0.08
558.67	0.08
559.014	0.08
559.359	0.08
559.704	0.07
560.048	0.07
560.393	0.07
560.737	0.08
561.082	0.08
561.426	0.08
561.77	0.08
562.115	0.08
562.459	0.08
562.803	0.07
563.147	0.08
563.491	0.08
563.835	0.08
564.179	0.08
564.523	0.08
564.867	0.08
565.211	0.08
565.555	0.08
565.899	0.08
566.242	0.08
566.586	0.09
566.93	0.09
567.273	0.08
567.617	0.08
567.96	0.08
568.304	0.08
568.647	0.07
568.99	0.08
569.334	0.08
569.677	0.08
570.02	0.08
570.363	0.09
570.706	0.08
571.049	0.09
571.392	0.09
571.735	0.09
572.078	0.09
572.421	0.09
572.764	0.09
573.106	0.09
573.449	0.09
573.792	0.09
574.134	0.09
574.477	0.09
574.819	0.09
575.162	0.09
575.504	0.09
575.847	0.08
576.189	0.08
576.531	0.09
576.873	0.08
577.215	0.08
577.558	0.08
577.9	0.08
578.242	0.08
578.584	0.08
578.926	0.08
579.267	0.08
579.609	0.09
579.951	0.08
580.293	0.08
580.634	0.08
580.976	0.09
581.318	0.08
581.659	0.08
582.001	0.09
582.342	0.09
582.683	0.08
583.025	0.08
583.366	0.08
583.707	0.08
584.049	0.08
584.39	0.08
584.731	0.07
585.072	0.08
585.413	0.07
585.754	0.07
586.095	0.08
586.435	0.08
586.776	0.08
587.117	0.07
587.458	0.08
587.798	0.08
588.139	0.09
588.48	0.09
588.82	0.08
589.161	0.08
589.501	0.07
589.841	0.08
590.182	0.08
590.522	0.08
590.862	0.07
591.202	0.08
591.542	0.08
591.882	0.07
592.222	0.07
592.562	0.07
592.902	0.07
593.242	0.07
593.582	0.07
593.922	0.07
594.261	0.07
594.601	0.08
594.941	0.07
595.28	0.08
595.62	0.08
595.959	0.08
596.299	0.08
596.638	0.07
596.977	0.08
597.317	0.07
597.656	0.07
597.995	0.08
598.334	0.08
598.673	0.07
599.012	0.08
599.351	0.08
599.69	0.07
600.029	0.08
600.368	0.08
600.707	0.07
601.046	0.07
601.384	0.08
601.723	0.08
602.061	0.08
602.4	0.08
602.738	0.08
603.077	0.08
603.415	0.08
603.754	0.08
604.092	0.08
604.43	0.08
604.768	0.08
605.107	0.08
605.445	0.08
605.783	0.08
606.121	0.07
606.459	0.08
606.796	0.08
607.134	0.08
607.472	0.08
607.81	0.08
608.148	0.08
608.485	0.08
608.823	0.08
609.16	0.08
609.498	0.08
609.835	0.08
610.173	0.08
610.51	0.08
610.847	0.08
611.185	0.07
611.522	0.07
611.859	0.08
612.196	0.07
612.533	0.08
612.87	0.07
613.207	0.08
613.544	0.08
613.881	0.08
614.217	0.08
614.554	0.07
614.891	0.07
615.228	0.07
615.564	0.07
615.901	0.07
616.237	0.07
616.574	0.07
616.91	0.07
617.246	0.07
617.583	0.07
617.919	0.07
618.255	0.08
618.591	0.07
618.927	0.07
619.263	0.07
619.599	0.07
619.935	0.07
620.271	0.07
620.607	0.07
620.943	0.07
621.279	0.07
621.614	0.07
621.95	0.07
622.286	0.07
622.621	0.07
622.957	0.07
623.292	0.07
623.627	0.07
623.963	0.07
624.298	0.07
624.633	0.07
624.968	0.07
625.304	0.07
625.639	0.07
625.974	0.07
626.309	0.07
626.644	0.07
626.979	0.07
627.313	0.07
627.648	0.07
627.983	0.07
628.318	0.07
628.652	0.07
628.987	0.07
629.321	0.07
629.656	0.07
629.99	0.07
630.325	0.07
630.659	0.07
630.993	0.07
631.327	0.07
631.662	0.06
631.996	0.07
632.33	0.06
632.664	0.06
632.998	0.07
633.332	0.07
633.666	0.07
633.999	0.06
634.333	0.06
634.667	0.06
635.001	0.06
635.334	0.06
635.668	0.07
636.001	0.06
636.335	0.07
636.668	0.06
637.001	0.07
637.335	0.06
637.668	0.07
638.001	0.07
638.334	0.06
638.668	0.06
639.001	0.07
639.334	0.07
639.667	0.06
639.999	0.06
640.332	0.06
640.665	0.06
640.998	0.07
641.331	0.07
641.663	0.06
641.996	0.07
642.328	0.07
642.661	0.07
642.993	0.06
643.326	0.06
643.658	0.06
643.99	0.07
644.323	0.07
644.655	0.06
644.987	0.06
645.319	0.06
645.651	0.07
645.983	0.07
646.315	0.06
646.647	0.07
646.979	0.07
647.31	0.07
647.642	0.07
647.974	0.07
648.305	0.07
648.637	0.07
648.968	0.07
649.3	0.07
649.631	0.07
649.963	0.07
650.294	0.07
650.625	0.07
650.957	0.07
651.288	0.07
651.619	0.07
651.95	0.07
652.281	0.08
652.612	0.07
652.943	0.07
653.274	0.08
653.604	0.07
653.935	0.07
654.266	0.07
654.596	0.07
654.927	0.07
655.258	0.07
655.588	0.06
655.918	0.07
656.249	0.06
656.579	0.06
656.909	0.06
657.24	0.06
657.57	0.06
657.9	0.06
658.23	0.07
658.56	0.06
658.89	0.07
659.22	0.06
659.55	0.06
659.88	0.06
660.209	0.06
660.539	0.06
660.869	0.06
661.198	0.06
661.528	0.06
661.857	0.06
662.187	0.06
662.516	0.06
662.846	0.06
663.175	0.06
663.504	0.06
663.833	0.05
664.163	0.06
664.492	0.05
664.821	0.06
665.15	0.06
665.479	0.07
665.807	0.06
666.136	0.06
666.465	0.06
666.794	0.06
667.122	0.07
667.451	0.06
667.78	0.06
668.108	0.06
668.437	0.06
668.765	0.05
669.093	0.06
669.422	0.06
669.75	0.06
670.078	0.06
670.406	0.06
670.734	0.06
671.062	0.06
671.39	0.06
671.718	0.06
672.046	0.06
672.374	0.06
672.702	0.06
673.029	0.06
673.357	0.06
673.685	0.06
674.012	0.06
674.34	0.06
674.667	0.06
674.995	0.06
675.322	0.06
675.649	0.06
675.977	0.06
676.304	0.06
676.631	0.07
676.958	0.06
677.285	0.07
677.612	0.07
677.939	0.06
678.266	0.06
678.593	0.06
678.92	0.06
679.246	0.06
679.573	0.06
679.9	0.06
680.226	0.07
680.553	0.07
680.879	0.06
681.206	0.06
681.532	0.07
681.858	0.07
682.184	0.07
682.511	0.07
682.837	0.07
683.163	0.07
683.489	0.07
683.815	0.06
684.141	0.07
684.467	0.06
684.793	0.06
685.118	0.07
685.444	0.06
685.77	0.07
686.095	0.06
686.421	0.06
686.746	0.06
687.072	0.06
687.397	0.06
