Data from 0p005mrestco2_Absorbance_00149.txt Node
Date: Mon Nov 28 19:46:46 EST 2022
User: Kiana
Spectrometer: FLMS00943
Trigger mode: 0
Integration Time (sec): 8.630000E-2
Scans to average: 1
Electric dark correction enabled: true
Nonlinearity correction enabled: false
Boxcar width: 0
XAxis mode: Wavelengths
Number of Pixels in Spectrum: 2048
>>>>>Begin Spectral Data<<<<<
179.651	0.03
180.037	0.03
180.424	0.03
180.81	-0
181.197	-0
181.583	-0.06
181.97	1.01
182.356	-1.37
182.743	0.01
183.129	-0.1
183.515	-0
183.901	1.53
184.288	-0
184.674	-0
185.06	-0
185.446	-0
185.832	1.8
186.218	0.93
186.604	-0.52
186.99	-0.43
187.376	-0
187.762	-0.1
188.148	-1.66
188.534	0
188.92	0.04
189.305	-0.08
189.691	-0.05
190.077	0.06
190.463	0.02
190.848	-0.01
191.234	-0.12
191.619	0.05
192.005	-0.04
192.391	-0.1
192.776	0
193.161	-0.01
193.547	-0.01
193.932	0.06
194.318	0.02
194.703	-0.04
195.088	0.01
195.473	0.07
195.859	-0
196.244	0.02
196.629	0
197.014	0.05
197.399	0.1
197.784	0
198.169	0.12
198.554	0
198.939	-0.01
199.324	0.08
199.709	-0.04
200.094	0.05
200.478	0.16
200.863	0.07
201.248	0.17
201.633	0.02
202.017	0.12
202.402	0.04
202.787	0.1
203.171	0.03
203.556	0.07
203.94	0.07
204.325	0.04
204.709	0.12
205.093	0.1
205.478	0.14
205.862	0.14
206.246	0.07
206.631	0.11
207.015	0.14
207.399	0.12
207.783	0.2
208.167	0.13
208.551	0.2
208.935	0.09
209.319	0.12
209.703	0.12
210.087	0.17
210.471	0.17
210.855	0.08
211.239	0.16
211.623	0.1
212.007	0.13
212.39	0.16
212.774	0.19
213.158	0.17
213.541	0.18
213.925	0.17
214.309	0.23
214.692	0.21
215.076	0.19
215.459	0.21
215.842	0.2
216.226	0.21
216.609	0.22
216.993	0.24
217.376	0.25
217.759	0.26
218.142	0.31
218.525	0.31
218.909	0.34
219.292	0.34
219.675	0.37
220.058	0.4
220.441	0.42
220.824	0.43
221.207	0.42
221.59	0.43
221.973	0.44
222.355	0.44
222.738	0.46
223.121	0.46
223.504	0.45
223.886	0.45
224.269	0.45
224.652	0.46
225.034	0.44
225.417	0.43
225.799	0.43
226.182	0.42
226.564	0.42
226.947	0.41
227.329	0.39
227.711	0.39
228.094	0.37
228.476	0.37
228.858	0.36
229.24	0.34
229.623	0.33
230.005	0.32
230.387	0.32
230.769	0.32
231.151	0.31
231.533	0.3
231.915	0.3
232.297	0.3
232.679	0.3
233.061	0.3
233.442	0.3
233.824	0.29
234.206	0.3
234.588	0.31
234.969	0.31
235.351	0.31
235.733	0.33
236.114	0.34
236.496	0.34
236.877	0.36
237.259	0.38
237.64	0.39
238.022	0.4
238.403	0.42
238.784	0.44
239.165	0.46
239.547	0.47
239.928	0.49
240.309	0.52
240.69	0.53
241.071	0.56
241.452	0.57
241.834	0.61
242.215	0.62
242.595	0.67
242.976	0.67
243.357	0.68
243.738	0.72
244.119	0.74
244.5	0.76
244.881	0.79
245.261	0.82
245.642	0.84
246.023	0.87
246.403	0.89
246.784	0.92
247.164	0.95
247.545	0.95
247.925	0.97
248.306	1
248.686	1.01
249.067	1.04
249.447	1.05
249.827	1.05
250.207	1.06
250.588	1.06
250.968	1.08
251.348	1.07
251.728	1.05
252.108	1.08
252.488	1.09
252.868	1.08
253.248	1.06
253.628	1.08
254.008	1.06
254.388	1.05
254.768	1.04
255.147	1.04
255.527	1.02
255.907	1
256.287	0.99
256.666	0.98
257.046	0.97
257.425	0.95
257.805	0.91
258.184	0.89
258.564	0.86
258.943	0.84
259.323	0.81
259.702	0.78
260.081	0.75
260.461	0.72
260.84	0.69
261.219	0.66
261.598	0.63
261.977	0.6
262.356	0.57
262.736	0.55
263.115	0.53
263.494	0.5
263.873	0.47
264.251	0.44
264.63	0.42
265.009	0.4
265.388	0.38
265.767	0.36
266.145	0.35
266.524	0.32
266.903	0.31
267.281	0.29
267.66	0.27
268.039	0.26
268.417	0.24
268.796	0.22
269.174	0.21
269.552	0.2
269.931	0.18
270.309	0.17
270.687	0.15
271.066	0.14
271.444	0.13
271.822	0.12
272.2	0.11
272.578	0.1
272.956	0.09
273.334	0.08
273.712	0.07
274.09	0.06
274.468	0.05
274.846	0.03
275.224	0.02
275.602	0.01
275.98	0.01
276.357	-0
276.735	-0.01
277.113	-0.01
277.49	-0.02
277.868	-0.02
278.246	-0.03
278.623	-0.04
279.001	-0.04
279.378	-0.04
279.756	-0.05
280.133	-0.06
280.51	-0.05
280.888	-0.05
281.265	-0.06
281.642	-0.06
282.019	-0.06
282.396	-0.06
282.773	-0.06
283.151	-0.06
283.528	-0.06
283.905	-0.06
284.282	-0.07
284.659	-0.07
285.035	-0.07
285.412	-0.07
285.789	-0.07
286.166	-0.08
286.543	-0.08
286.919	-0.08
287.296	-0.08
287.673	-0.08
288.049	-0.09
288.426	-0.09
288.802	-0.1
289.179	-0.1
289.555	-0.1
289.932	-0.11
290.308	-0.1
290.684	-0.1
291.061	-0.1
291.437	-0.1
291.813	-0.11
292.189	-0.11
292.565	-0.1
292.942	-0.11
293.318	-0.11
293.694	-0.11
294.07	-0.1
294.446	-0.1
294.822	-0.11
295.197	-0.11
295.573	-0.11
295.949	-0.11
296.325	-0.11
296.701	-0.11
297.076	-0.12
297.452	-0.12
297.828	-0.11
298.203	-0.11
298.579	-0.11
298.954	-0.12
299.33	-0.12
299.705	-0.12
300.081	-0.12
300.456	-0.13
300.831	-0.12
301.206	-0.13
301.582	-0.13
301.957	-0.13
302.332	-0.14
302.707	-0.14
303.082	-0.14
303.457	-0.15
303.832	-0.15
304.207	-0.15
304.582	-0.15
304.957	-0.14
305.332	-0.15
305.707	-0.15
306.082	-0.15
306.456	-0.15
306.831	-0.15
307.206	-0.15
307.58	-0.15
307.955	-0.15
308.33	-0.15
308.704	-0.15
309.079	-0.16
309.453	-0.16
309.828	-0.16
310.202	-0.16
310.576	-0.16
310.951	-0.16
311.325	-0.16
311.699	-0.16
312.073	-0.17
312.447	-0.16
312.821	-0.17
313.196	-0.16
313.57	-0.17
313.944	-0.16
314.317	-0.16
314.691	-0.16
315.065	-0.16
315.439	-0.16
315.813	-0.16
316.187	-0.16
316.56	-0.16
316.934	-0.16
317.308	-0.16
317.681	-0.17
318.055	-0.16
318.428	-0.16
318.802	-0.16
319.175	-0.16
319.549	-0.16
319.922	-0.16
320.295	-0.17
320.669	-0.17
321.042	-0.17
321.415	-0.17
321.788	-0.17
322.162	-0.17
322.535	-0.18
322.908	-0.17
323.281	-0.17
323.654	-0.17
324.027	-0.17
324.4	-0.18
324.773	-0.18
325.145	-0.18
325.518	-0.18
325.891	-0.19
326.264	-0.17
326.636	-0.17
327.009	-0.16
327.382	-0.17
327.754	-0.17
328.127	-0.17
328.499	-0.17
328.872	-0.17
329.244	-0.17
329.616	-0.17
329.989	-0.16
330.361	-0.16
330.733	-0.16
331.106	-0.16
331.478	-0.16
331.85	-0.16
332.222	-0.16
332.594	-0.16
332.966	-0.16
333.338	-0.17
333.71	-0.16
334.082	-0.16
334.454	-0.16
334.826	-0.16
335.197	-0.16
335.569	-0.15
335.941	-0.16
336.312	-0.16
336.684	-0.16
337.056	-0.16
337.427	-0.15
337.799	-0.16
338.17	-0.15
338.542	-0.15
338.913	-0.15
339.284	-0.15
339.656	-0.15
340.027	-0.15
340.398	-0.15
340.769	-0.15
341.141	-0.15
341.512	-0.14
341.883	-0.14
342.254	-0.15
342.625	-0.15
342.996	-0.14
343.367	-0.15
343.738	-0.14
344.108	-0.14
344.479	-0.13
344.85	-0.14
345.221	-0.13
345.591	-0.14
345.962	-0.13
346.333	-0.13
346.703	-0.13
347.074	-0.13
347.444	-0.13
347.815	-0.13
348.185	-0.13
348.556	-0.13
348.926	-0.13
349.296	-0.12
349.666	-0.12
350.037	-0.13
350.407	-0.12
350.777	-0.12
351.147	-0.12
351.517	-0.11
351.887	-0.11
352.257	-0.11
352.627	-0.11
352.997	-0.11
353.367	-0.11
353.737	-0.1
354.106	-0.11
354.476	-0.1
354.846	-0.1
355.216	-0.1
355.585	-0.09
355.955	-0.1
356.324	-0.09
356.694	-0.08
357.063	-0.09
357.433	-0.08
357.802	-0.08
358.171	-0.07
358.541	-0.07
358.91	-0.07
359.279	-0.07
359.648	-0.07
360.017	-0.07
360.387	-0.06
360.756	-0.06
361.125	-0.06
361.494	-0.06
361.863	-0.05
362.231	-0.05
362.6	-0.05
362.969	-0.05
363.338	-0.04
363.707	-0.05
364.075	-0.04
364.444	-0.04
364.813	-0.04
365.181	-0.03
365.55	-0.04
365.918	-0.03
366.287	-0.02
366.655	-0.02
367.024	-0.01
367.392	-0.01
367.76	-0.02
368.128	-0.01
368.497	-0
368.865	-0.01
369.233	-0
369.601	-0
369.969	0
370.337	0
370.705	0.01
371.073	0.01
371.441	0.02
371.809	0.01
372.177	0.01
372.544	0.02
372.912	0.02
373.28	0.02
373.647	0.02
374.015	0.02
374.383	0.02
374.75	0.02
375.118	0.03
375.485	0.02
375.853	0.04
376.22	0.03
376.587	0.04
376.955	0.03
377.322	0.04
377.689	0.03
378.056	0.03
378.423	0.05
378.79	0.04
379.157	0.04
379.524	0.04
379.891	0.04
380.258	0.06
380.625	0.06
380.992	0.06
381.359	0.05
381.726	0.06
382.092	0.05
382.459	0.06
382.826	0.08
383.192	0.07
383.559	0.07
383.925	0.07
384.292	0.08
384.658	0.09
385.025	0.08
385.391	0.09
385.757	0.1
386.123	0.09
386.49	0.09
386.856	0.1
387.222	0.1
387.588	0.09
387.954	0.1
388.32	0.11
388.686	0.11
389.052	0.12
389.418	0.12
389.784	0.12
390.15	0.12
390.515	0.11
390.881	0.11
391.247	0.12
391.613	0.12
391.978	0.11
392.344	0.12
392.709	0.12
393.075	0.11
393.44	0.12
393.806	0.1
394.171	0.11
394.536	0.1
394.902	0.09
395.267	0.09
395.632	0.09
395.997	0.08
396.362	0.08
396.727	0.07
397.092	0.08
397.457	0.07
397.822	0.07
398.187	0.07
398.552	0.07
398.917	0.06
399.282	0.06
399.646	0.05
400.011	0.05
400.376	0.06
400.74	0.04
401.105	0.05
401.47	0.04
401.834	0.03
402.199	0.03
402.563	0.04
402.927	0.03
403.292	0.03
403.656	0.03
404.02	0.02
404.384	0.02
404.749	0.01
405.113	0.02
405.477	0.02
405.841	0.01
406.205	0
406.569	0.01
406.933	0.01
407.296	0.01
407.66	0.01
408.024	-0
408.388	0.01
408.752	-0
409.115	-0
409.479	-0
409.842	-0.01
410.206	-0
410.569	-0.01
410.933	-0.02
411.296	-0.01
411.66	-0.02
412.023	-0.02
412.386	-0.01
412.749	-0.02
413.113	-0.02
413.476	-0.01
413.839	-0.03
414.202	-0.02
414.565	-0.03
414.928	-0.04
415.291	-0.04
415.654	-0.03
416.017	-0.04
416.38	-0.04
416.742	-0.04
417.105	-0.04
417.468	-0.04
417.83	-0.04
418.193	-0.04
418.556	-0.06
418.918	-0.05
419.281	-0.07
419.643	-0.05
420.005	-0.05
420.368	-0.06
420.73	-0.06
421.092	-0.07
421.455	-0.06
421.817	-0.07
422.179	-0.07
422.541	-0.07
422.903	-0.07
423.265	-0.07
423.627	-0.07
423.989	-0.08
424.351	-0.06
424.713	-0.08
425.075	-0.07
425.436	-0.07
425.798	-0.07
426.16	-0.07
426.521	-0.09
426.883	-0.08
427.245	-0.08
427.606	-0.08
427.967	-0.08
428.329	-0.08
428.69	-0.08
429.052	-0.08
429.413	-0.09
429.774	-0.08
430.135	-0.07
430.497	-0.07
430.858	-0.08
431.219	-0.07
431.58	-0.09
431.941	-0.08
432.302	-0.09
432.663	-0.08
433.024	-0.08
433.384	-0.09
433.745	-0.09
434.106	-0.08
434.467	-0.09
434.827	-0.09
435.188	-0.09
435.548	-0.1
435.909	-0.1
436.269	-0.09
436.63	-0.09
436.99	-0.1
437.351	-0.1
437.711	-0.1
438.071	-0.1
438.431	-0.1
438.792	-0.1
439.152	-0.1
439.512	-0.1
439.872	-0.11
440.232	-0.12
440.592	-0.12
440.952	-0.12
441.312	-0.12
441.671	-0.13
442.031	-0.12
442.391	-0.13
442.751	-0.14
443.11	-0.13
443.47	-0.14
443.83	-0.14
444.189	-0.14
444.549	-0.13
444.908	-0.14
445.267	-0.13
445.627	-0.14
445.986	-0.15
446.345	-0.15
446.705	-0.15
447.064	-0.14
447.423	-0.16
447.782	-0.16
448.141	-0.15
448.5	-0.15
448.859	-0.16
449.218	-0.16
449.577	-0.16
449.936	-0.17
450.295	-0.16
450.653	-0.17
451.012	-0.16
451.371	-0.16
451.729	-0.17
452.088	-0.17
452.447	-0.17
452.805	-0.18
453.163	-0.18
453.522	-0.17
453.88	-0.18
454.239	-0.18
454.597	-0.18
454.955	-0.18
455.313	-0.19
455.671	-0.18
456.029	-0.19
456.388	-0.18
456.746	-0.19
457.104	-0.19
457.461	-0.19
457.819	-0.19
458.177	-0.2
458.535	-0.19
458.893	-0.19
459.25	-0.19
459.608	-0.19
459.966	-0.2
460.323	-0.2
460.681	-0.19
461.038	-0.19
461.396	-0.2
461.753	-0.21
462.111	-0.2
462.468	-0.2
462.825	-0.2
463.182	-0.19
463.54	-0.2
463.897	-0.2
464.254	-0.19
464.611	-0.2
464.968	-0.2
465.325	-0.2
465.682	-0.2
466.039	-0.2
466.395	-0.2
466.752	-0.2
467.109	-0.19
467.466	-0.21
467.822	-0.2
468.179	-0.2
468.535	-0.2
468.892	-0.21
469.248	-0.21
469.605	-0.2
469.961	-0.2
470.318	-0.2
470.674	-0.21
471.03	-0.2
471.386	-0.2
471.743	-0.21
472.099	-0.21
472.455	-0.2
472.811	-0.21
473.167	-0.2
473.523	-0.21
473.879	-0.2
474.235	-0.21
474.59	-0.2
474.946	-0.2
475.302	-0.2
475.657	-0.2
476.013	-0.2
476.369	-0.2
476.724	-0.2
477.08	-0.2
477.435	-0.19
477.791	-0.2
478.146	-0.19
478.501	-0.2
478.857	-0.19
479.212	-0.18
479.567	-0.18
479.922	-0.18
480.277	-0.18
480.632	-0.18
480.987	-0.17
481.342	-0.17
481.697	-0.16
482.052	-0.17
482.407	-0.16
482.762	-0.16
483.116	-0.16
483.471	-0.16
483.826	-0.16
484.18	-0.16
484.535	-0.15
484.89	-0.15
485.244	-0.15
485.598	-0.15
485.953	-0.15
486.307	-0.15
486.661	-0.15
487.016	-0.15
487.37	-0.15
487.724	-0.15
488.078	-0.15
488.432	-0.15
488.786	-0.14
489.14	-0.14
489.494	-0.14
489.848	-0.14
490.202	-0.14
490.556	-0.14
490.91	-0.14
491.263	-0.14
491.617	-0.14
491.971	-0.15
492.324	-0.15
492.678	-0.15
493.031	-0.15
493.385	-0.15
493.738	-0.15
494.091	-0.15
494.445	-0.15
494.798	-0.15
495.151	-0.15
495.504	-0.16
495.857	-0.15
496.21	-0.15
496.564	-0.16
496.916	-0.16
497.269	-0.16
497.622	-0.16
497.975	-0.17
498.328	-0.17
498.681	-0.18
499.033	-0.18
499.386	-0.18
499.739	-0.18
500.091	-0.18
500.444	-0.18
500.796	-0.19
501.149	-0.19
501.501	-0.19
501.854	-0.19
502.206	-0.2
502.558	-0.2
502.91	-0.2
503.263	-0.2
503.615	-0.2
503.967	-0.2
504.319	-0.2
504.671	-0.2
505.023	-0.21
505.375	-0.2
505.726	-0.21
506.078	-0.2
506.43	-0.2
506.782	-0.2
507.133	-0.21
507.485	-0.21
507.837	-0.21
508.188	-0.21
508.54	-0.21
508.891	-0.21
509.243	-0.21
509.594	-0.2
509.945	-0.2
510.296	-0.21
510.648	-0.21
510.999	-0.21
511.35	-0.21
511.701	-0.21
512.052	-0.21
512.403	-0.21
512.754	-0.21
513.105	-0.21
513.456	-0.21
513.807	-0.21
514.157	-0.21
514.508	-0.21
514.859	-0.21
515.209	-0.22
515.56	-0.21
515.91	-0.21
516.261	-0.21
516.611	-0.21
516.962	-0.21
517.312	-0.21
517.662	-0.2
518.013	-0.2
518.363	-0.21
518.713	-0.2
519.063	-0.2
519.413	-0.2
519.763	-0.19
520.113	-0.2
520.463	-0.19
520.813	-0.19
521.163	-0.19
521.512	-0.19
521.862	-0.19
522.212	-0.19
522.562	-0.19
522.911	-0.19
523.261	-0.18
523.61	-0.18
523.96	-0.18
524.309	-0.18
524.658	-0.19
525.008	-0.18
525.357	-0.19
525.706	-0.19
526.056	-0.18
526.405	-0.18
526.754	-0.18
527.103	-0.18
527.452	-0.19
527.801	-0.19
528.15	-0.18
528.499	-0.19
528.847	-0.19
529.196	-0.18
529.545	-0.19
529.893	-0.18
530.242	-0.19
530.591	-0.19
530.939	-0.2
531.288	-0.19
531.636	-0.2
531.985	-0.2
532.333	-0.2
532.681	-0.21
533.029	-0.21
533.378	-0.21
533.726	-0.2
534.074	-0.21
534.422	-0.21
534.77	-0.21
535.118	-0.21
535.466	-0.2
535.814	-0.21
536.162	-0.21
536.509	-0.21
536.857	-0.22
537.205	-0.21
537.552	-0.21
537.9	-0.2
538.248	-0.21
538.595	-0.21
538.943	-0.21
539.29	-0.21
539.637	-0.22
539.985	-0.22
540.332	-0.21
540.679	-0.21
541.026	-0.22
541.373	-0.21
541.721	-0.21
542.068	-0.21
542.415	-0.21
542.762	-0.21
543.108	-0.21
543.455	-0.21
543.802	-0.21
544.149	-0.2
544.496	-0.21
544.842	-0.21
545.189	-0.21
545.535	-0.21
545.882	-0.21
546.228	-0.21
546.575	-0.21
546.921	-0.22
547.267	-0.21
547.614	-0.2
547.96	-0.21
548.306	-0.21
548.652	-0.21
548.998	-0.21
549.344	-0.21
549.69	-0.21
550.036	-0.2
550.382	-0.2
550.728	-0.21
551.074	-0.2
551.42	-0.21
551.765	-0.21
552.111	-0.21
552.457	-0.21
552.802	-0.21
553.148	-0.22
553.493	-0.21
553.839	-0.21
554.184	-0.21
554.529	-0.2
554.875	-0.21
555.22	-0.21
555.565	-0.21
555.91	-0.21
556.255	-0.21
556.6	-0.21
556.945	-0.21
557.29	-0.2
557.635	-0.21
557.98	-0.2
558.325	-0.21
558.67	-0.21
559.014	-0.21
559.359	-0.21
559.704	-0.2
560.048	-0.21
560.393	-0.2
560.737	-0.21
561.082	-0.21
561.426	-0.21
561.77	-0.21
562.115	-0.21
562.459	-0.22
562.803	-0.21
563.147	-0.22
563.491	-0.22
563.835	-0.22
564.179	-0.21
564.523	-0.21
564.867	-0.21
565.211	-0.21
565.555	-0.21
565.899	-0.21
566.242	-0.21
566.586	-0.22
566.93	-0.21
567.273	-0.21
567.617	-0.22
567.96	-0.21
568.304	-0.21
568.647	-0.22
568.99	-0.21
569.334	-0.22
569.677	-0.21
570.02	-0.21
570.363	-0.2
570.706	-0.21
571.049	-0.21
571.392	-0.21
571.735	-0.21
572.078	-0.21
572.421	-0.21
572.764	-0.2
573.106	-0.21
573.449	-0.21
573.792	-0.21
574.134	-0.22
574.477	-0.21
574.819	-0.21
575.162	-0.21
575.504	-0.21
575.847	-0.21
576.189	-0.22
576.531	-0.21
576.873	-0.21
577.215	-0.21
577.558	-0.22
577.9	-0.21
578.242	-0.22
578.584	-0.22
578.926	-0.21
579.267	-0.21
579.609	-0.21
579.951	-0.22
580.293	-0.22
580.634	-0.21
580.976	-0.22
581.318	-0.22
581.659	-0.21
582.001	-0.21
582.342	-0.22
582.683	-0.21
583.025	-0.22
583.366	-0.21
583.707	-0.21
584.049	-0.21
584.39	-0.21
584.731	-0.2
585.072	-0.21
585.413	-0.2
585.754	-0.2
586.095	-0.2
586.435	-0.2
586.776	-0.21
587.117	-0.21
587.458	-0.21
587.798	-0.21
588.139	-0.21
588.48	-0.22
588.82	-0.2
589.161	-0.22
589.501	-0.21
589.841	-0.22
590.182	-0.22
590.522	-0.22
590.862	-0.22
591.202	-0.22
591.542	-0.22
591.882	-0.22
592.222	-0.22
592.562	-0.22
592.902	-0.22
593.242	-0.22
593.582	-0.22
593.922	-0.22
594.261	-0.22
594.601	-0.21
594.941	-0.22
595.28	-0.22
595.62	-0.22
595.959	-0.22
596.299	-0.21
596.638	-0.21
596.977	-0.22
597.317	-0.21
597.656	-0.21
597.995	-0.22
598.334	-0.22
598.673	-0.21
599.012	-0.21
599.351	-0.22
599.69	-0.21
600.029	-0.22
600.368	-0.21
600.707	-0.21
601.046	-0.22
601.384	-0.22
601.723	-0.21
602.061	-0.22
602.4	-0.21
602.738	-0.21
603.077	-0.22
603.415	-0.21
603.754	-0.22
604.092	-0.22
604.43	-0.21
604.768	-0.21
605.107	-0.21
605.445	-0.21
605.783	-0.22
606.121	-0.21
606.459	-0.22
606.796	-0.21
607.134	-0.21
607.472	-0.21
607.81	-0.21
608.148	-0.21
608.485	-0.21
608.823	-0.21
609.16	-0.2
609.498	-0.21
609.835	-0.21
610.173	-0.21
610.51	-0.21
610.847	-0.21
611.185	-0.21
611.522	-0.21
611.859	-0.21
612.196	-0.21
612.533	-0.21
612.87	-0.22
613.207	-0.22
613.544	-0.21
613.881	-0.21
614.217	-0.21
614.554	-0.21
614.891	-0.21
615.228	-0.21
615.564	-0.22
615.901	-0.21
616.237	-0.22
616.574	-0.22
616.91	-0.22
617.246	-0.22
617.583	-0.22
617.919	-0.22
618.255	-0.22
618.591	-0.22
618.927	-0.22
619.263	-0.22
619.599	-0.22
619.935	-0.22
620.271	-0.22
620.607	-0.22
620.943	-0.21
621.279	-0.22
621.614	-0.21
621.95	-0.21
622.286	-0.22
622.621	-0.22
622.957	-0.22
623.292	-0.22
623.627	-0.21
623.963	-0.22
624.298	-0.22
624.633	-0.22
624.968	-0.22
625.304	-0.22
625.639	-0.22
625.974	-0.21
626.309	-0.21
626.644	-0.22
626.979	-0.22
627.313	-0.21
627.648	-0.21
627.983	-0.21
628.318	-0.21
628.652	-0.21
628.987	-0.21
629.321	-0.21
629.656	-0.21
629.99	-0.21
630.325	-0.21
630.659	-0.21
630.993	-0.2
631.327	-0.21
631.662	-0.2
631.996	-0.21
632.33	-0.21
632.664	-0.2
632.998	-0.21
633.332	-0.21
633.666	-0.21
633.999	-0.2
634.333	-0.2
634.667	-0.21
635.001	-0.21
635.334	-0.21
635.668	-0.21
636.001	-0.21
636.335	-0.21
636.668	-0.21
637.001	-0.21
637.335	-0.22
637.668	-0.21
638.001	-0.22
638.334	-0.22
638.668	-0.22
639.001	-0.22
639.334	-0.22
639.667	-0.22
639.999	-0.22
640.332	-0.22
640.665	-0.22
640.998	-0.22
641.331	-0.22
641.663	-0.22
641.996	-0.22
642.328	-0.22
642.661	-0.23
642.993	-0.23
643.326	-0.22
643.658	-0.22
643.99	-0.22
644.323	-0.22
644.655	-0.22
644.987	-0.22
645.319	-0.22
645.651	-0.21
645.983	-0.22
646.315	-0.22
646.647	-0.22
646.979	-0.22
647.31	-0.22
647.642	-0.22
647.974	-0.22
648.305	-0.22
648.637	-0.22
648.968	-0.22
649.3	-0.22
649.631	-0.21
649.963	-0.22
650.294	-0.21
650.625	-0.22
650.957	-0.22
651.288	-0.21
651.619	-0.21
651.95	-0.21
652.281	-0.21
652.612	-0.22
652.943	-0.21
653.274	-0.21
653.604	-0.21
653.935	-0.22
654.266	-0.22
654.596	-0.21
654.927	-0.21
655.258	-0.21
655.588	-0.21
655.918	-0.22
656.249	-0.21
656.579	-0.21
656.909	-0.22
657.24	-0.22
657.57	-0.22
657.9	-0.23
658.23	-0.22
658.56	-0.22
658.89	-0.23
659.22	-0.22
659.55	-0.23
659.88	-0.23
660.209	-0.23
660.539	-0.22
660.869	-0.22
661.198	-0.23
661.528	-0.22
661.857	-0.22
662.187	-0.22
662.516	-0.23
662.846	-0.22
663.175	-0.23
663.504	-0.23
663.833	-0.23
664.163	-0.23
664.492	-0.23
664.821	-0.23
665.15	-0.23
665.479	-0.23
665.807	-0.23
666.136	-0.23
666.465	-0.24
