Data from 0p005mcharge_n2_Absorbance_00003.txt Node
Date: Mon Nov 28 19:04:55 EST 2022
User: Kiana
Spectrometer: FLMS00943
Trigger mode: 0
Integration Time (sec): 8.630000E-2
Scans to average: 1
Electric dark correction enabled: true
Nonlinearity correction enabled: false
Boxcar width: 0
XAxis mode: Wavelengths
Number of Pixels in Spectrum: 2048
>>>>>Begin Spectral Data<<<<<
179.651	-0
180.037	-0
180.424	-0
180.81	-0
181.197	-0
181.583	-0.58
181.97	-0
182.356	-1.3
182.743	-0
183.129	-0.44
183.515	-0.27
183.901	-0
184.288	0.25
184.674	-0.48
185.06	-0.02
185.446	-0.24
185.832	-0.25
186.218	-0
186.604	-0.26
186.99	-0.89
187.376	0.32
187.762	1.02
188.148	-1.75
188.534	0.07
188.92	0.06
189.305	-0.01
189.691	-0.01
190.077	0.04
190.463	-0.03
190.848	-0.07
191.234	-0.05
191.619	-0.02
192.005	-0.06
192.391	-0.12
192.776	0.01
193.161	-0.13
193.547	-0.04
193.932	0.04
194.318	0.01
194.703	-0.05
195.088	0.04
195.473	0.03
195.859	0.01
196.244	-0.01
196.629	0.04
197.014	-0.05
197.399	0.12
197.784	-0.04
198.169	0.03
198.554	0.06
198.939	-0.04
199.324	0.06
199.709	0.01
200.094	0.05
200.478	0.04
200.863	0.06
201.248	0.13
201.633	0.01
202.017	0.21
202.402	0.08
202.787	0.1
203.171	0.14
203.556	0.1
203.94	0.12
204.325	0.04
204.709	0.08
205.093	0.13
205.478	0.09
205.862	0.16
206.246	0.13
206.631	0.16
207.015	0.13
207.399	0.12
207.783	0.2
208.167	0.21
208.551	0.19
208.935	0.15
209.319	0.18
209.703	0.19
210.087	0.19
210.471	0.27
210.855	0.11
211.239	0.21
211.623	0.14
212.007	0.19
212.39	0.2
212.774	0.29
213.158	0.23
213.541	0.3
213.925	0.25
214.309	0.28
214.692	0.25
215.076	0.26
215.459	0.28
215.842	0.26
216.226	0.36
216.609	0.34
216.993	0.34
217.376	0.38
217.759	0.43
218.142	0.46
218.525	0.49
218.909	0.53
219.292	0.55
219.675	0.61
220.058	0.62
220.441	0.65
220.824	0.65
221.207	0.65
221.59	0.67
221.973	0.65
222.355	0.64
222.738	0.65
223.121	0.64
223.504	0.62
223.886	0.61
224.269	0.6
224.652	0.57
225.034	0.55
225.417	0.53
225.799	0.5
226.182	0.48
226.564	0.45
226.947	0.43
227.329	0.4
227.711	0.37
228.094	0.33
228.476	0.33
228.858	0.31
229.24	0.29
229.623	0.27
230.005	0.25
230.387	0.24
230.769	0.22
231.151	0.2
231.533	0.2
231.915	0.19
232.297	0.18
232.679	0.18
233.061	0.17
233.442	0.17
233.824	0.17
234.206	0.15
234.588	0.16
234.969	0.15
235.351	0.15
235.733	0.15
236.114	0.16
236.496	0.15
236.877	0.16
237.259	0.17
237.64	0.17
238.022	0.17
238.403	0.17
238.784	0.18
239.165	0.19
239.547	0.19
239.928	0.19
240.309	0.21
240.69	0.21
241.071	0.21
241.452	0.22
241.834	0.22
242.215	0.23
242.595	0.24
242.976	0.25
243.357	0.26
243.738	0.27
244.119	0.28
244.5	0.27
244.881	0.29
245.261	0.3
245.642	0.3
246.023	0.32
246.403	0.32
246.784	0.33
247.164	0.34
247.545	0.34
247.925	0.35
248.306	0.35
248.686	0.36
249.067	0.38
249.447	0.38
249.827	0.38
250.207	0.39
250.588	0.39
250.968	0.4
251.348	0.41
251.728	0.4
252.108	0.42
252.488	0.42
252.868	0.42
253.248	0.42
253.628	0.42
254.008	0.43
254.388	0.43
254.768	0.43
255.147	0.42
255.527	0.42
255.907	0.43
256.287	0.43
256.666	0.43
257.046	0.42
257.425	0.42
257.805	0.41
258.184	0.41
258.564	0.4
258.943	0.4
259.323	0.4
259.702	0.39
260.081	0.38
260.461	0.37
260.84	0.36
261.219	0.35
261.598	0.34
261.977	0.34
262.356	0.32
262.736	0.33
263.115	0.31
263.494	0.3
263.873	0.29
264.251	0.29
264.63	0.28
265.009	0.26
265.388	0.26
265.767	0.25
266.145	0.25
266.524	0.23
266.903	0.23
267.281	0.22
267.66	0.21
268.039	0.21
268.417	0.2
268.796	0.2
269.174	0.19
269.552	0.19
269.931	0.18
270.309	0.18
270.687	0.16
271.066	0.15
271.444	0.15
271.822	0.15
272.2	0.14
272.578	0.14
272.956	0.13
273.334	0.13
273.712	0.12
274.09	0.12
274.468	0.11
274.846	0.1
275.224	0.09
275.602	0.09
275.98	0.09
276.357	0.08
276.735	0.07
277.113	0.08
277.49	0.07
277.868	0.06
278.246	0.06
278.623	0.05
279.001	0.05
279.378	0.04
279.756	0.03
280.133	0.03
280.51	0.02
280.888	0.01
281.265	0.01
281.642	0
282.019	-0.01
282.396	-0.01
282.773	-0.02
283.151	-0.02
283.528	-0.02
283.905	-0.03
284.282	-0.03
284.659	-0.03
285.035	-0.04
285.412	-0.04
285.789	-0.05
286.166	-0.05
286.543	-0.06
286.919	-0.06
287.296	-0.06
287.673	-0.07
288.049	-0.07
288.426	-0.08
288.802	-0.08
289.179	-0.09
289.555	-0.09
289.932	-0.1
290.308	-0.09
290.684	-0.09
291.061	-0.09
291.437	-0.09
291.813	-0.1
292.189	-0.1
292.565	-0.1
292.942	-0.1
293.318	-0.1
293.694	-0.1
294.07	-0.1
294.446	-0.1
294.822	-0.1
295.197	-0.1
295.573	-0.1
295.949	-0.11
296.325	-0.1
296.701	-0.1
297.076	-0.11
297.452	-0.11
297.828	-0.11
298.203	-0.11
298.579	-0.11
298.954	-0.12
299.33	-0.11
299.705	-0.11
300.081	-0.12
300.456	-0.12
300.831	-0.12
301.206	-0.13
301.582	-0.13
301.957	-0.13
302.332	-0.13
302.707	-0.14
303.082	-0.13
303.457	-0.14
303.832	-0.14
304.207	-0.14
304.582	-0.14
304.957	-0.14
305.332	-0.15
305.707	-0.15
306.082	-0.14
306.456	-0.14
306.831	-0.14
307.206	-0.14
307.58	-0.14
307.955	-0.14
308.33	-0.14
308.704	-0.14
309.079	-0.15
309.453	-0.15
309.828	-0.15
310.202	-0.15
310.576	-0.15
310.951	-0.15
311.325	-0.15
311.699	-0.15
312.073	-0.16
312.447	-0.15
312.821	-0.16
313.196	-0.16
313.57	-0.16
313.944	-0.15
314.317	-0.15
314.691	-0.15
315.065	-0.15
315.439	-0.15
315.813	-0.15
316.187	-0.15
316.56	-0.15
316.934	-0.15
317.308	-0.15
317.681	-0.16
318.055	-0.15
318.428	-0.15
318.802	-0.15
319.175	-0.15
319.549	-0.15
319.922	-0.15
320.295	-0.15
320.669	-0.16
321.042	-0.16
321.415	-0.15
321.788	-0.16
322.162	-0.16
322.535	-0.16
322.908	-0.16
323.281	-0.16
323.654	-0.15
324.027	-0.16
324.4	-0.16
324.773	-0.16
325.145	-0.16
325.518	-0.16
325.891	-0.16
326.264	-0.16
326.636	-0.16
327.009	-0.15
327.382	-0.16
327.754	-0.16
328.127	-0.15
328.499	-0.16
328.872	-0.16
329.244	-0.16
329.616	-0.16
329.989	-0.15
330.361	-0.15
330.733	-0.15
331.106	-0.15
331.478	-0.15
331.85	-0.15
332.222	-0.15
332.594	-0.15
332.966	-0.15
333.338	-0.14
333.71	-0.15
334.082	-0.15
334.454	-0.15
334.826	-0.15
335.197	-0.15
335.569	-0.14
335.941	-0.15
336.312	-0.15
336.684	-0.15
337.056	-0.15
337.427	-0.14
337.799	-0.15
338.17	-0.14
338.542	-0.14
338.913	-0.14
339.284	-0.14
339.656	-0.14
340.027	-0.14
340.398	-0.14
340.769	-0.14
341.141	-0.14
341.512	-0.14
341.883	-0.13
342.254	-0.14
342.625	-0.14
342.996	-0.14
343.367	-0.14
343.738	-0.13
344.108	-0.13
344.479	-0.14
344.85	-0.13
345.221	-0.13
345.591	-0.13
345.962	-0.13
346.333	-0.13
346.703	-0.13
347.074	-0.13
347.444	-0.13
347.815	-0.12
348.185	-0.13
348.556	-0.13
348.926	-0.13
349.296	-0.13
349.666	-0.13
350.037	-0.13
350.407	-0.12
350.777	-0.12
351.147	-0.11
351.517	-0.12
351.887	-0.11
352.257	-0.11
352.627	-0.11
352.997	-0.11
353.367	-0.12
353.737	-0.11
354.106	-0.1
354.476	-0.1
354.846	-0.1
355.216	-0.1
355.585	-0.1
355.955	-0.09
356.324	-0.1
356.694	-0.1
357.063	-0.09
357.433	-0.09
357.802	-0.09
358.171	-0.09
358.541	-0.08
358.91	-0.09
359.279	-0.09
359.648	-0.09
360.017	-0.08
360.387	-0.08
360.756	-0.08
361.125	-0.08
361.494	-0.08
361.863	-0.08
362.231	-0.08
362.6	-0.08
362.969	-0.08
363.338	-0.07
363.707	-0.08
364.075	-0.07
364.444	-0.07
364.813	-0.07
365.181	-0.07
365.55	-0.07
365.918	-0.07
366.287	-0.06
366.655	-0.06
367.024	-0.06
367.392	-0.06
367.76	-0.06
368.128	-0.05
368.497	-0.05
368.865	-0.06
369.233	-0.05
369.601	-0.05
369.969	-0.05
370.337	-0.04
370.705	-0.05
371.073	-0.04
371.441	-0.04
371.809	-0.05
372.177	-0.04
372.544	-0.03
372.912	-0.04
373.28	-0.04
373.647	-0.03
374.015	-0.04
374.383	-0.03
374.75	-0.03
375.118	-0.03
375.485	-0.03
375.853	-0.02
376.22	-0.02
376.587	-0.02
376.955	-0.02
377.322	-0.01
377.689	-0.02
378.056	-0.02
378.423	-0.02
378.79	-0.02
379.157	-0.01
379.524	-0.02
379.891	-0.01
380.258	-0.01
380.625	-0
380.992	-0.01
381.359	-0.02
381.726	-0
382.092	-0.01
382.459	-0
382.826	0
383.192	-0.01
383.559	0
383.925	-0
384.292	-0.01
384.658	-0
385.025	-0.01
385.391	0
385.757	0.01
386.123	-0
386.49	-0
386.856	0
387.222	0.01
387.588	0
387.954	0.01
388.32	0.01
388.686	0.01
389.052	0.01
389.418	0.01
389.784	0.02
390.15	0.01
390.515	0.01
390.881	0.01
391.247	0.01
391.613	0.01
391.978	0.01
392.344	0.02
392.709	0.01
393.075	0.02
393.44	0.02
393.806	0.01
394.171	0.01
394.536	0.01
394.902	0.01
395.267	0
395.632	0.01
395.997	0
396.362	0
396.727	0.01
397.092	0.01
397.457	0
397.822	0.01
398.187	0.01
398.552	0.01
398.917	0.01
399.282	0.01
399.646	0
400.011	0.01
400.376	0.02
400.74	0.01
401.105	0.01
401.47	0
401.834	0
402.199	-0.01
402.563	0
402.927	0
403.292	0
403.656	-0
404.02	-0.01
404.384	0
404.749	-0.01
405.113	-0
405.477	-0.01
405.841	0
406.205	-0.02
406.569	-0
406.933	-0.01
407.296	-0.01
407.66	-0.01
408.024	-0.01
408.388	-0.01
408.752	-0.02
409.115	-0.01
409.479	-0.01
409.842	-0.01
410.206	-0.01
410.569	-0.02
410.933	-0.03
411.296	-0.01
411.66	-0.03
412.023	-0.02
412.386	-0.03
412.749	-0.02
413.113	-0.02
413.476	-0.01
413.839	-0.03
414.202	-0.02
414.565	-0.03
414.928	-0.03
415.291	-0.04
415.654	-0.04
416.017	-0.03
416.38	-0.03
416.742	-0.04
417.105	-0.05
417.468	-0.04
417.83	-0.05
418.193	-0.04
418.556	-0.05
418.918	-0.05
419.281	-0.06
419.643	-0.05
420.005	-0.06
420.368	-0.06
420.73	-0.06
421.092	-0.06
421.455	-0.06
421.817	-0.07
422.179	-0.06
422.541	-0.06
422.903	-0.06
423.265	-0.07
423.627	-0.06
423.989	-0.07
424.351	-0.06
424.713	-0.08
425.075	-0.06
425.436	-0.07
425.798	-0.08
426.16	-0.08
426.521	-0.08
426.883	-0.08
427.245	-0.08
427.606	-0.09
427.967	-0.09
428.329	-0.09
428.69	-0.09
429.052	-0.1
429.413	-0.1
429.774	-0.09
430.135	-0.08
430.497	-0.09
430.858	-0.09
431.219	-0.1
431.58	-0.09
431.941	-0.09
432.302	-0.11
432.663	-0.1
433.024	-0.1
433.384	-0.1
433.745	-0.11
434.106	-0.1
434.467	-0.1
434.827	-0.11
435.188	-0.11
435.548	-0.11
435.909	-0.12
436.269	-0.11
436.63	-0.12
436.99	-0.13
437.351	-0.13
437.711	-0.13
438.071	-0.13
438.431	-0.13
438.792	-0.14
439.152	-0.12
439.512	-0.13
439.872	-0.13
440.232	-0.14
440.592	-0.14
440.952	-0.14
441.312	-0.14
441.671	-0.15
442.031	-0.15
442.391	-0.15
442.751	-0.16
443.11	-0.16
443.47	-0.15
443.83	-0.16
444.189	-0.15
444.549	-0.16
444.908	-0.16
445.267	-0.16
445.627	-0.16
445.986	-0.17
446.345	-0.17
446.705	-0.17
447.064	-0.17
447.423	-0.18
447.782	-0.17
448.141	-0.17
448.5	-0.17
448.859	-0.17
449.218	-0.17
449.577	-0.17
449.936	-0.18
450.295	-0.18
450.653	-0.19
451.012	-0.17
451.371	-0.17
451.729	-0.19
452.088	-0.18
452.447	-0.18
452.805	-0.19
453.163	-0.18
453.522	-0.19
453.88	-0.19
454.239	-0.19
454.597	-0.19
454.955	-0.2
455.313	-0.2
455.671	-0.2
456.029	-0.19
456.388	-0.2
456.746	-0.2
457.104	-0.2
457.461	-0.2
457.819	-0.2
458.177	-0.21
458.535	-0.2
458.893	-0.21
459.25	-0.21
459.608	-0.21
459.966	-0.21
460.323	-0.21
460.681	-0.21
461.038	-0.2
461.396	-0.21
461.753	-0.21
462.111	-0.21
462.468	-0.21
462.825	-0.21
463.182	-0.2
463.54	-0.21
463.897	-0.2
464.254	-0.2
464.611	-0.21
464.968	-0.21
465.325	-0.21
465.682	-0.2
466.039	-0.21
466.395	-0.21
466.752	-0.21
467.109	-0.21
467.466	-0.21
467.822	-0.21
468.179	-0.22
468.535	-0.21
468.892	-0.22
469.248	-0.22
469.605	-0.21
469.961	-0.21
470.318	-0.21
470.674	-0.21
471.03	-0.21
471.386	-0.21
471.743	-0.22
472.099	-0.22
472.455	-0.21
472.811	-0.22
473.167	-0.21
473.523	-0.21
473.879	-0.21
474.235	-0.21
474.59	-0.21
474.946	-0.21
475.302	-0.21
475.657	-0.21
476.013	-0.21
476.369	-0.21
476.724	-0.2
477.08	-0.21
477.435	-0.2
477.791	-0.2
478.146	-0.19
478.501	-0.2
478.857	-0.2
479.212	-0.18
479.567	-0.19
479.922	-0.18
480.277	-0.19
480.632	-0.19
480.987	-0.17
481.342	-0.18
481.697	-0.17
482.052	-0.17
482.407	-0.17
482.762	-0.17
483.116	-0.16
483.471	-0.17
483.826	-0.16
484.18	-0.16
484.535	-0.16
484.89	-0.15
485.244	-0.15
485.598	-0.15
485.953	-0.15
486.307	-0.15
486.661	-0.15
487.016	-0.15
487.37	-0.15
487.724	-0.15
488.078	-0.15
488.432	-0.15
488.786	-0.15
489.14	-0.15
489.494	-0.15
489.848	-0.14
490.202	-0.15
490.556	-0.15
490.91	-0.15
491.263	-0.15
491.617	-0.15
491.971	-0.15
492.324	-0.15
492.678	-0.15
493.031	-0.15
493.385	-0.15
493.738	-0.16
494.091	-0.15
494.445	-0.15
494.798	-0.15
495.151	-0.16
495.504	-0.16
495.857	-0.16
496.21	-0.16
496.564	-0.17
496.916	-0.16
497.269	-0.17
497.622	-0.17
497.975	-0.17
498.328	-0.17
498.681	-0.18
499.033	-0.18
499.386	-0.18
499.739	-0.19
500.091	-0.19
500.444	-0.19
500.796	-0.19
501.149	-0.19
501.501	-0.2
501.854	-0.2
502.206	-0.2
502.558	-0.21
502.91	-0.21
503.263	-0.21
503.615	-0.21
503.967	-0.2
504.319	-0.21
504.671	-0.21
505.023	-0.21
505.375	-0.21
505.726	-0.21
506.078	-0.21
506.43	-0.21
506.782	-0.21
507.133	-0.21
507.485	-0.21
507.837	-0.21
508.188	-0.22
508.54	-0.21
508.891	-0.22
509.243	-0.22
509.594	-0.21
509.945	-0.21
510.296	-0.22
510.648	-0.22
510.999	-0.21
511.35	-0.22
511.701	-0.22
512.052	-0.22
512.403	-0.22
512.754	-0.22
513.105	-0.22
513.456	-0.22
513.807	-0.22
514.157	-0.22
514.508	-0.21
514.859	-0.22
515.209	-0.22
515.56	-0.21
515.91	-0.22
516.261	-0.22
516.611	-0.22
516.962	-0.21
517.312	-0.22
517.662	-0.21
518.013	-0.21
518.363	-0.21
518.713	-0.21
519.063	-0.2
519.413	-0.2
519.763	-0.2
520.113	-0.2
520.463	-0.2
520.813	-0.2
521.163	-0.2
521.512	-0.19
521.862	-0.2
522.212	-0.19
522.562	-0.2
522.911	-0.19
523.261	-0.19
523.61	-0.19
523.96	-0.19
524.309	-0.19
524.658	-0.19
525.008	-0.19
525.357	-0.19
525.706	-0.19
526.056	-0.18
526.405	-0.19
526.754	-0.19
527.103	-0.19
527.452	-0.19
527.801	-0.19
528.15	-0.19
528.499	-0.19
528.847	-0.19
529.196	-0.19
529.545	-0.19
529.893	-0.18
530.242	-0.2
530.591	-0.19
530.939	-0.2
531.288	-0.2
531.636	-0.2
531.985	-0.2
532.333	-0.21
532.681	-0.21
533.029	-0.22
533.378	-0.21
533.726	-0.21
534.074	-0.22
534.422	-0.21
534.77	-0.21
535.118	-0.22
535.466	-0.21
535.814	-0.22
536.162	-0.22
536.509	-0.21
536.857	-0.22
537.205	-0.22
537.552	-0.21
537.9	-0.21
538.248	-0.22
538.595	-0.22
538.943	-0.22
539.29	-0.22
539.637	-0.22
539.985	-0.22
540.332	-0.22
540.679	-0.22
541.026	-0.23
541.373	-0.21
541.721	-0.22
542.068	-0.21
542.415	-0.21
542.762	-0.22
543.108	-0.22
543.455	-0.21
543.802	-0.22
544.149	-0.22
544.496	-0.22
544.842	-0.22
545.189	-0.22
545.535	-0.22
545.882	-0.21
546.228	-0.22
546.575	-0.22
546.921	-0.22
547.267	-0.22
547.614	-0.21
547.96	-0.22
548.306	-0.22
548.652	-0.21
548.998	-0.21
549.344	-0.22
549.69	-0.22
550.036	-0.21
550.382	-0.21
550.728	-0.22
551.074	-0.21
551.42	-0.22
551.765	-0.22
552.111	-0.22
552.457	-0.22
552.802	-0.22
553.148	-0.22
553.493	-0.22
553.839	-0.22
554.184	-0.23
554.529	-0.21
554.875	-0.21
555.22	-0.22
555.565	-0.22
555.91	-0.22
556.255	-0.22
556.6	-0.22
556.945	-0.22
557.29	-0.21
557.635	-0.21
557.98	-0.21
558.325	-0.21
558.67	-0.22
559.014	-0.22
559.359	-0.22
559.704	-0.22
560.048	-0.22
560.393	-0.22
560.737	-0.22
561.082	-0.22
561.426	-0.22
561.77	-0.22
562.115	-0.22
562.459	-0.23
562.803	-0.22
563.147	-0.22
563.491	-0.23
563.835	-0.23
564.179	-0.22
564.523	-0.22
564.867	-0.23
565.211	-0.22
565.555	-0.22
565.899	-0.22
566.242	-0.22
566.586	-0.22
566.93	-0.22
567.273	-0.22
567.617	-0.23
567.96	-0.22
568.304	-0.22
568.647	-0.23
568.99	-0.22
569.334	-0.23
569.677	-0.22
570.02	-0.22
570.363	-0.21
570.706	-0.22
571.049	-0.23
571.392	-0.22
571.735	-0.22
572.078	-0.22
572.421	-0.22
572.764	-0.22
573.106	-0.22
573.449	-0.22
573.792	-0.22
574.134	-0.23
574.477	-0.22
574.819	-0.22
575.162	-0.22
575.504	-0.22
575.847	-0.22
576.189	-0.22
576.531	-0.22
576.873	-0.22
577.215	-0.23
577.558	-0.23
577.9	-0.22
578.242	-0.23
578.584	-0.23
578.926	-0.23
579.267	-0.22
579.609	-0.22
579.951	-0.23
580.293	-0.22
580.634	-0.23
580.976	-0.22
581.318	-0.23
581.659	-0.22
582.001	-0.23
582.342	-0.22
582.683	-0.22
583.025	-0.23
583.366	-0.22
583.707	-0.22
584.049	-0.22
584.39	-0.22
584.731	-0.21
585.072	-0.22
585.413	-0.22
585.754	-0.21
586.095	-0.22
586.435	-0.21
586.776	-0.21
587.117	-0.22
587.458	-0.22
587.798	-0.21
588.139	-0.22
588.48	-0.23
588.82	-0.22
589.161	-0.22
589.501	-0.21
589.841	-0.22
590.182	-0.22
590.522	-0.22
590.862	-0.22
591.202	-0.22
591.542	-0.22
591.882	-0.22
592.222	-0.22
592.562	-0.22
592.902	-0.23
593.242	-0.22
593.582	-0.22
593.922	-0.23
594.261	-0.23
594.601	-0.22
594.941	-0.22
595.28	-0.23
595.62	-0.23
595.959	-0.23
596.299	-0.22
596.638	-0.22
596.977	-0.23
597.317	-0.22
597.656	-0.22
597.995	-0.23
598.334	-0.23
598.673	-0.23
599.012	-0.23
599.351	-0.22
599.69	-0.22
600.029	-0.22
600.368	-0.22
600.707	-0.22
601.046	-0.23
601.384	-0.22
601.723	-0.22
602.061	-0.22
602.4	-0.22
602.738	-0.22
603.077	-0.22
603.415	-0.22
603.754	-0.22
604.092	-0.22
604.43	-0.22
604.768	-0.21
605.107	-0.21
605.445	-0.22
605.783	-0.22
606.121	-0.21
606.459	-0.22
606.796	-0.21
607.134	-0.22
607.472	-0.21
607.81	-0.21
608.148	-0.21
608.485	-0.21
608.823	-0.21
609.16	-0.21
609.498	-0.22
609.835	-0.21
610.173	-0.22
610.51	-0.21
610.847	-0.22
611.185	-0.22
611.522	-0.21
611.859	-0.22
612.196	-0.22
612.533	-0.21
612.87	-0.22
613.207	-0.22
613.544	-0.21
613.881	-0.21
614.217	-0.21
614.554	-0.21
614.891	-0.22
615.228	-0.22
615.564	-0.22
615.901	-0.21
616.237	-0.22
616.574	-0.22
616.91	-0.22
617.246	-0.22
617.583	-0.22
617.919	-0.23
618.255	-0.23
618.591	-0.22
618.927	-0.22
619.263	-0.22
619.599	-0.22
619.935	-0.22
620.271	-0.22
620.607	-0.22
620.943	-0.22
621.279	-0.22
621.614	-0.22
621.95	-0.22
622.286	-0.23
622.621	-0.22
622.957	-0.22
623.292	-0.22
623.627	-0.22
623.963	-0.23
624.298	-0.22
624.633	-0.23
624.968	-0.22
625.304	-0.22
625.639	-0.22
625.974	-0.22
626.309	-0.22
626.644	-0.22
626.979	-0.22
627.313	-0.21
627.648	-0.22
627.983	-0.21
628.318	-0.21
628.652	-0.21
628.987	-0.21
629.321	-0.21
629.656	-0.21
629.99	-0.21
630.325	-0.21
630.659	-0.21
630.993	-0.2
631.327	-0.21
631.662	-0.2
631.996	-0.21
632.33	-0.21
632.664	-0.2
632.998	-0.21
633.332	-0.21
633.666	-0.21
633.999	-0.2
634.333	-0.21
634.667	-0.21
635.001	-0.21
635.334	-0.21
635.668	-0.21
636.001	-0.22
636.335	-0.21
636.668	-0.21
637.001	-0.22
637.335	-0.22
637.668	-0.21
638.001	-0.22
638.334	-0.22
638.668	-0.22
639.001	-0.22
639.334	-0.23
639.667	-0.22
639.999	-0.23
640.332	-0.22
640.665	-0.22
640.998	-0.23
641.331	-0.23
641.663	-0.22
641.996	-0.22
642.328	-0.23
642.661	-0.23
642.993	-0.23
643.326	-0.22
643.658	-0.22
643.99	-0.23
644.323	-0.23
644.655	-0.22
644.987	-0.22
645.319	-0.22
645.651	-0.22
645.983	-0.23
646.315	-0.22
646.647	-0.22
646.979	-0.22
647.31	-0.22
647.642	-0.23
647.974	-0.23
648.305	-0.22
648.637	-0.22
648.968	-0.22
649.3	-0.22
649.631	-0.22
649.963	-0.22
650.294	-0.22
650.625	-0.22
650.957	-0.22
651.288	-0.22
651.619	-0.22
651.95	-0.22
652.281	-0.21
652.612	-0.22
652.943	-0.22
653.274	-0.22
653.604	-0.22
653.935	-0.22
654.266	-0.22
654.596	-0.22
654.927	-0.22
655.258	-0.22
655.588	-0.22
655.918	-0.22
656.249	-0.21
656.579	-0.22
656.909	-0.22
657.24	-0.22
657.57	-0.22
657.9	-0.23
658.23	-0.22
658.56	-0.23
658.89	-0.23
659.22	-0.22
659.55	-0.22
659.88	-0.23
660.209	-0.23
660.539	-0.23
660.869	-0.23
661.198	-0.23
661.528	-0.23
661.857	-0.22
662.187	-0.22
662.516	-0.23
662.846	-0.22
663.175	-0.23
663.504	-0.23
663.833	-0.23
664.163	-0.23
664.492	-0.23
664.821	-0.23
